Temps;Canal A
(s);(V)

0,00000000;5,75457000
0,00016384;5,75457000
0,00032768;5,75457000
0,00049152;5,66484600
0,00065536;5,75457000
0,00081920;5,75457000
0,00098304;5,75457000
0,00114688;5,75457000
0,00131072;5,66484600
0,00147456;5,66484600
0,00163840;5,75457000
0,00180224;5,75457000
0,00196608;5,75457000
0,00212992;5,66484600
0,00229376;5,66484600
0,00245760;5,75457000
0,00262144;5,75457000
0,00278528;5,75457000
0,00294912;5,75457000
0,00311296;5,75457000
0,00327680;5,75457000
0,00344064;5,66484600
0,00360448;5,75457000
0,00376832;5,66484600
0,00393216;5,75457000
0,00409600;5,75457000
0,00425984;5,66484600
0,00442368;5,75457000
0,00458752;5,75457000
0,00475136;5,66484600
0,00491520;5,66484600
0,00507904;5,75457000
0,00524288;5,75457000
0,00540672;5,75457000
0,00557056;5,66484600
0,00573440;5,75457000
0,00589824;5,75457000
0,00606208;5,66484600
0,00622592;5,66484600
0,00638976;5,75457000
0,00655360;5,66484600
0,00671744;5,75457000
0,00688128;5,75457000
0,00704512;5,66484600
0,00720896;5,75457000
0,00737280;5,75457000
0,00753664;5,66484600
0,00770048;5,66484600
0,00786432;5,66484600
0,00802816;5,66484600
0,00819200;5,57512100
0,00835584;5,30564300
0,00851968;4,94644000
0,00868352;4,67696100
0,00884736;4,49751300
0,00901120;4,13831000
0,00917504;3,77910700
0,00933888;3,41990400
0,00950272;3,15042600
0,00966656;2,79122300
0,00983040;2,43202000
0,00999424;2,07281700
0,01015808;1,71361400
0,01032192;1,35441100
0,01048576;0,99520860
0,01064960;0,72573020
0,01081344;0,36652730
0,01097728;0,27680290
0,01114112;0,18707850
0,01130496;0,09735405
0,01146880;0,00762963
0,01163264;0,00762963
0,01179648;0,00762963
0,01196032;0,00762963
0,01212416;0,00762963
0,01228800;0,00762963
0,01245184;0,00762963
0,01261568;0,00762963
0,01277952;0,00762963
0,01294336;0,00762963
0,01310720;0,00762963
0,01327104;-0,08209479
0,01343488;0,00762963
0,01359872;0,00762963
0,01376256;0,00762963
0,01392640;0,00762963
0,01409024;0,00762963
0,01425408;0,00762963
0,01441792;0,00762963
0,01458176;0,00762963
0,01474560;0,00762963
0,01490944;0,00762963
0,01507328;0,00762963
0,01523712;0,00762963
0,01540096;0,00762963
0,01556480;0,00762963
0,01572864;0,00762963
0,01589248;0,00762963
0,01605632;0,00762963
0,01622016;0,00762963
0,01638400;0,00762963
0,01654784;0,00762963
0,01671168;0,00762963
0,01687552;0,00762963
0,01703936;0,09735405
0,01720320;0,09735405
0,01736704;0,09735405
0,01753088;0,00762963
0,01769472;0,09735405
0,01785856;0,09735405
0,01802240;0,09735405
0,01818624;0,00762963
0,01835008;0,00762963
0,01851392;0,00762963
0,01867776;0,00762963
0,01884160;0,00762963
0,01900544;0,00762963
0,01916928;0,00762963
0,01933312;0,00762963
0,01949696;0,00762963
0,01966080;0,00762963
0,01982464;0,00762963
0,01998848;0,00762963
0,02015232;0,00762963
0,02031616;0,00762963
0,02048000;0,00762963
0,02064384;0,00762963
0,02080768;0,00762963
0,02097152;0,00762963
0,02113536;0,00762963
0,02129920;0,00762963
0,02146304;0,00762963
0,02162688;-0,08209479
0,02179072;0,00762963
0,02195456;0,00762963
0,02211840;-0,08209479
0,02228224;-0,08209479
0,02244608;-0,08209479
0,02260992;0,00762963
0,02277376;-0,08209479
0,02293760;-0,08209479
0,02310144;-0,08209479
0,02326528;-0,08209479
0,02342912;-0,08209479
0,02359296;-0,08209479
0,02375680;-0,08209479
0,02392064;-0,08209479
0,02408448;-0,08209479
0,02424832;-0,08209479
0,02441216;-0,08209479
0,02457600;-0,08209479
0,02473984;-0,08209479
0,02490368;-0,08209479
0,02506752;-0,08209479
0,02523136;-0,17181920
0,02539520;-0,17181920
0,02555904;-0,08209479
0,02572288;-0,08209479
0,02588672;-0,17181920
0,02605056;-0,08209479
0,02621440;-0,08209479
0,02637824;-0,17181920
0,02654208;-0,08209479
0,02670592;-0,17181920
0,02686976;-0,08209479
0,02703360;-0,08209479
0,02719744;-0,08209479
0,02736128;-0,08209479
0,02752512;0,00762963
0,02768896;-0,08209479
0,02785280;0,00762963
0,02801664;0,00762963
0,02818048;-0,08209479
0,02834432;0,00762963
0,02850816;0,00762963
0,02867200;0,00762963
0,02883584;0,18707850
0,02899968;0,36652730
0,02916352;0,81575980
0,02932736;1,17496300
0,02949120;1,62389000
0,02965504;2,07281700
0,02981888;2,52174400
0,02998272;2,97097700
0,03014656;3,41990400
0,03031040;3,86883100
0,03047424;4,31775900
0,03063808;4,85671600
0,03080192;5,21591900
0,03096576;5,48539700
0,03112960;5,57512100
0,03129344;5,66484600
0,03145728;5,66484600
0,03162112;5,66484600
0,03178496;5,75457000
0,03194880;5,75457000
0,03211264;5,75457000
0,03227648;5,75457000
0,03244032;5,75457000
0,03260416;5,75457000
0,03276800;5,75457000
0,03293184;5,75457000
0,03309568;5,75457000
0,03325952;5,75457000
0,03342336;5,75457000
0,03358720;5,75457000
0,03375104;5,75457000
0,03391488;5,75457000
0,03407872;5,66484600
0,03424256;5,75457000
0,03440640;5,66484600
0,03457024;5,75457000
0,03473408;5,75457000
0,03489792;5,75457000
0,03506176;5,75457000
0,03522560;5,75457000
0,03538944;5,75457000
0,03555328;5,75457000
0,03571712;5,75457000
0,03588096;5,66484600
0,03604480;5,66484600
0,03620864;5,75457000
0,03637248;5,75457000
0,03653632;5,75457000
0,03670016;5,75457000
0,03686400;5,75457000
0,03702784;5,75457000
0,03719168;5,66484600
0,03735552;5,75457000
0,03751936;5,66484600
0,03768320;5,75457000
0,03784704;5,75457000
0,03801088;5,75457000
0,03817472;5,75457000
0,03833856;5,66484600
0,03850240;5,75457000
0,03866624;5,75457000
0,03883008;5,75457000
0,03899392;5,75457000
0,03915776;5,75457000
0,03932160;5,66484600
0,03948544;5,66484600
0,03964928;5,75457000
0,03981312;5,66484600
0,03997696;5,75457000
0,04014080;5,75457000
0,04030464;5,75457000
0,04046848;5,66484600
0,04063232;5,75457000
0,04079616;5,75457000
0,04096000;5,75457000
0,04112384;5,75457000
0,04128768;5,75457000
0,04145152;5,75457000
0,04161536;5,75457000
0,04177920;5,75457000
0,04194304;5,66484600
0,04210688;5,66484600
0,04227072;5,66484600
0,04243456;5,66484600
0,04259840;5,57512100
0,04276224;5,48539700
0,04292608;5,21591900
0,04308992;4,94644000
0,04325376;4,67696100
0,04341760;4,40778800
0,04358144;4,13831000
0,04374528;3,77910700
0,04390912;3,41990400
0,04407296;3,06070100
0,04423680;2,79122300
0,04440064;2,43202000
0,04456448;2,07281700
0,04472832;1,71361400
0,04489216;1,35441100
0,04505600;0,99520860
0,04521984;0,63600580
0,04538368;0,45655690
0,04554752;0,18707850
0,04571136;0,09735405
0,04587520;0,09735405
0,04603904;0,09735405
0,04620288;0,00762963
0,04636672;0,00762963
0,04653056;0,00762963
0,04669440;0,00762963
0,04685824;-0,08209479
0,04702208;0,00762963
0,04718592;0,00762963
0,04734976;0,00762963
0,04751360;0,00762963
0,04767744;-0,08209479
0,04784128;0,00762963
0,04800512;0,00762963
0,04816896;0,00762963
0,04833280;0,00762963
0,04849664;0,00762963
0,04866048;0,00762963
0,04882432;-0,08209479
0,04898816;0,00762963
0,04915200;0,00762963
0,04931584;0,00762963
0,04947968;0,00762963
0,04964352;0,00762963
0,04980736;0,00762963
0,04997120;0,00762963
0,05013504;-0,08209479
0,05029888;0,00762963
0,05046272;0,00762963
0,05062656;0,00762963
0,05079040;0,00762963
0,05095424;0,00762963
0,05111808;0,00762963
0,05128192;0,00762963
0,05144576;0,00762963
0,05160960;0,00762963
0,05177344;0,00762963
0,05193728;0,00762963
0,05210112;0,09735405
0,05226496;0,09735405
0,05242880;0,09735405
0,05259264;0,09735405
0,05275648;0,00762963
0,05292032;0,00762963
0,05308416;0,00762963
0,05324800;0,00762963
0,05341184;0,09735405
0,05357568;0,00762963
0,05373952;0,00762963
0,05390336;0,00762963
0,05406720;0,00762963
0,05423104;0,00762963
0,05439488;0,09735405
0,05455872;0,00762963
0,05472256;0,00762963
0,05488640;0,00762963
0,05505024;0,09735405
0,05521408;0,00762963
0,05537792;0,00762963
0,05554176;0,00762963
0,05570560;0,00762963
0,05586944;0,00762963
0,05603328;0,00762963
0,05619712;0,00762963
0,05636096;0,00762963
0,05652480;0,00762963
0,05668864;0,00762963
0,05685248;-0,08209479
0,05701632;-0,08209479
0,05718016;0,00762963
0,05734400;0,00762963
0,05750784;-0,08209479
0,05767168;-0,08209479
0,05783552;-0,08209479
0,05799936;0,00762963
0,05816320;-0,08209479
0,05832704;-0,08209479
0,05849088;0,00762963
0,05865472;-0,08209479
0,05881856;-0,08209479
0,05898240;-0,08209479
0,05914624;-0,08209479
0,05931008;-0,08209479
0,05947392;-0,08209479
0,05963776;-0,08209479
0,05980160;-0,08209479
0,05996544;-0,08209479
0,06012928;-0,08209479
0,06029312;-0,08209479
0,06045696;-0,08209479
0,06062080;-0,08209479
0,06078464;-0,08209479
0,06094848;-0,08209479
0,06111232;-0,08209479
0,06127616;-0,08209479
0,06144000;-0,08209479
0,06160384;-0,08209479
0,06176768;-0,08209479
0,06193152;-0,08209479
0,06209536;-0,08209479
0,06225920;-0,08209479
0,06242304;-0,08209479
0,06258688;-0,08209479
0,06275072;-0,08209479
0,06291456;0,00762963
0,06307840;0,00762963
0,06324224;0,00762963
0,06340608;0,00762963
0,06356992;0,00762963
0,06373376;0,00762963
0,06389760;0,09735405
0,06406144;0,27680290
0,06422528;0,63600580
0,06438912;0,99520860
0,06455296;1,53416600
0,06471680;1,98309300
0,06488064;2,34229600
0,06504448;2,88094700
0,06520832;3,33018000
0,06537216;3,77910700
0,06553600;4,22803400
0,06569984;4,67696100
0,06586368;5,12619400
0,06602752;5,39536700
0,06619136;5,57512100
0,06635520;5,66484600
0,06651904;5,66484600
0,06668288;5,75457000
0,06684672;5,75457000
0,06701056;5,75457000
0,06717440;5,75457000
0,06733824;5,66484600
0,06750208;5,75457000
0,06766592;5,75457000
0,06782976;5,75457000
0,06799360;5,75457000
0,06815744;5,66484600
0,06832128;5,66484600
0,06848512;5,75457000
0,06864896;5,75457000
0,06881280;5,75457000
0,06897664;5,75457000
0,06914048;5,75457000
0,06930432;5,75457000
0,06946816;5,66484600
0,06963200;5,75457000
0,06979584;5,75457000
0,06995968;5,75457000
0,07012352;5,75457000
0,07028736;5,66484600
0,07045120;5,75457000
0,07061504;5,75457000
0,07077888;5,66484600
0,07094272;5,75457000
0,07110656;5,75457000
0,07127040;5,75457000
0,07143424;5,66484600
0,07159808;5,66484600
0,07176192;5,75457000
0,07192576;5,75457000
0,07208960;5,75457000
0,07225344;5,75457000
0,07241728;5,75457000
0,07258112;5,75457000
0,07274496;5,75457000
0,07290880;5,75457000
0,07307264;5,75457000
0,07323648;5,66484600
0,07340032;5,66484600
0,07356416;5,75457000
0,07372800;5,75457000
0,07389184;5,75457000
0,07405568;5,75457000
0,07421952;5,75457000
0,07438336;5,75457000
0,07454720;5,75457000
0,07471104;5,75457000
0,07487488;5,75457000
0,07503872;5,75457000
0,07520256;5,75457000
0,07536640;5,66484600
0,07553024;5,75457000
0,07569408;5,66484600
0,07585792;5,75457000
0,07602176;5,66484600
0,07618560;5,75457000
0,07634944;5,66484600
0,07651328;5,75457000
0,07667712;5,66484600
0,07684096;5,75457000
0,07700480;5,75457000
0,07716864;5,66484600
0,07733248;5,66484600
0,07749632;5,66484600
0,07766016;5,66484600
0,07782400;5,48539700
0,07798784;5,30564300
0,07815168;5,03616400
0,07831552;4,67696100
0,07847936;4,40778800
0,07864320;4,13831000
0,07880704;3,77910700
0,07897088;3,41990400
0,07913472;3,15042600
0,07929856;2,79122300
0,07946240;2,43202000
0,07962624;2,07281700
0,07979008;1,71361400
0,07995392;1,35441100
0,08011776;0,99520860
0,08028160;0,72573020
0,08044544;0,36652730
0,08060928;0,27680290
0,08077312;0,09735405
0,08093696;0,09735405
0,08110080;0,00762963
0,08126464;0,00762963
0,08142848;0,00762963
0,08159232;0,00762963
0,08175616;0,00762963
0,08192000;0,00762963
0,08208384;0,00762963
0,08224768;0,00762963
0,08241152;0,00762963
0,08257536;0,00762963
0,08273920;0,00762963
0,08290304;0,00762963
0,08306688;0,00762963
0,08323072;0,00762963
0,08339456;0,00762963
0,08355840;0,00762963
0,08372224;0,00762963
0,08388608;0,00762963
0,08404992;0,00762963
0,08421376;0,00762963
0,08437760;-0,08209479
0,08454144;0,00762963
0,08470528;0,00762963
0,08486912;0,00762963
0,08503296;0,00762963
0,08519680;0,00762963
0,08536064;0,00762963
0,08552448;0,00762963
0,08568832;0,00762963
0,08585216;0,00762963
0,08601600;0,00762963
0,08617984;0,00762963
0,08634368;0,09735405
0,08650752;0,09735405
0,08667136;0,09735405
0,08683520;0,00762963
0,08699904;0,00762963
0,08716288;0,09735405
0,08732672;0,00762963
0,08749056;0,00762963
0,08765440;0,09735405
0,08781824;0,09735405
0,08798208;0,09735405
0,08814592;0,09735405
0,08830976;0,00762963
0,08847360;0,00762963
0,08863744;0,00762963
0,08880128;0,00762963
0,08896512;0,00762963
0,08912896;0,00762963
0,08929280;0,00762963
0,08945664;0,00762963
0,08962048;0,00762963
0,08978432;0,00762963
0,08994816;0,00762963
0,09011200;0,00762963
0,09027584;0,00762963
0,09043968;0,00762963
0,09060352;0,00762963
0,09076736;0,00762963
0,09093120;0,00762963
0,09109504;0,00762963
0,09125888;0,00762963
0,09142272;-0,08209479
0,09158656;-0,08209479
0,09175040;0,00762963
0,09191424;-0,08209479
0,09207808;0,00762963
0,09224192;-0,08209479
0,09240576;-0,08209479
0,09256960;-0,08209479
0,09273344;-0,08209479
0,09289728;-0,08209479
0,09306112;-0,08209479
0,09322496;-0,08209479
0,09338880;-0,08209479
0,09355264;-0,08209479
0,09371648;-0,08209479
0,09388032;-0,08209479
0,09404416;-0,08209479
0,09420800;-0,08209479
0,09437184;-0,08209479
0,09453568;-0,08209479
0,09469952;-0,08209479
0,09486336;-0,08209479
0,09502720;-0,08209479
0,09519104;-0,08209479
0,09535488;-0,08209479
0,09551872;-0,08209479
0,09568256;-0,08209479
0,09584640;-0,08209479
0,09601024;0,00762963
0,09617408;0,00762963
0,09633792;-0,08209479
0,09650176;0,00762963
0,09666560;-0,08209479
0,09682944;0,00762963
0,09699328;0,00762963
0,09715712;0,00762963
0,09732096;0,00762963
0,09748480;0,00762963
0,09764864;0,18707850
0,09781248;0,45655690
0,09797632;0,90548420
0,09814016;1,26468700
0,09830400;1,71361400
0,09846784;2,16254200
0,09863168;2,61177400
0,09879552;3,06070100
0,09895936;3,50962900
0,09912320;3,95855600
0,09928704;4,49751300
0,09945088;4,85671600
0,09961472;5,21591900
0,09977856;5,48539700
0,09994240;5,57512100
0,10010624;5,66484600
0,10027008;5,66484600
0,10043392;5,66484600
0,10059776;5,75457000
0,10076160;5,75457000
0,10092544;5,75457000
0,10108928;5,75457000
0,10125312;5,75457000
0,10141696;5,75457000
0,10158080;5,75457000
0,10174464;5,75457000
0,10190848;5,75457000
0,10207232;5,75457000
0,10223616;5,75457000
0,10240000;5,75457000
0,10256384;5,66484600
0,10272768;5,75457000
0,10289152;5,75457000
0,10305536;5,75457000
0,10321920;5,75457000
0,10338304;5,75457000
0,10354688;5,75457000
0,10371072;5,66484600
0,10387456;5,66484600
0,10403840;5,66484600
0,10420224;5,75457000
0,10436608;5,66484600
0,10452992;5,75457000
0,10469376;5,75457000
0,10485760;5,75457000
0,10502144;5,75457000
0,10518528;5,66484600
0,10534912;5,66484600
0,10551296;5,75457000
0,10567680;5,75457000
0,10584064;5,66484600
0,10600448;5,75457000
0,10616832;5,75457000
0,10633216;5,75457000
0,10649600;5,66484600
0,10665984;5,75457000
0,10682368;5,75457000
0,10698752;5,66484600
0,10715136;5,66484600
0,10731520;5,75457000
0,10747904;5,75457000
0,10764288;5,75457000
0,10780672;5,66484600
0,10797056;5,75457000
0,10813440;5,75457000
0,10829824;5,75457000
0,10846208;5,66484600
0,10862592;5,75457000
0,10878976;5,75457000
0,10895360;5,66484600
0,10911744;5,75457000
0,10928128;5,75457000
0,10944512;5,75457000
0,10960896;5,75457000
0,10977280;5,66484600
0,10993664;5,75457000
0,11010048;5,75457000
0,11026432;5,75457000
0,11042816;5,75457000
0,11059200;5,66484600
0,11075584;5,75457000
0,11091968;5,66484600
0,11108352;5,66484600
0,11124736;5,66484600
0,11141120;5,57512100
0,11157504;5,48539700
0,11173888;5,21591900
0,11190272;5,03616400
0,11206656;4,67696100
0,11223040;4,40778800
0,11239424;4,13831000
0,11255808;3,77910700
0,11272192;3,41990400
0,11288576;3,06070100
0,11304960;2,70149900
0,11321344;2,43202000
0,11337728;2,07281700
0,11354112;1,71361400
0,11370496;1,35441100
0,11386880;0,99520860
0,11403264;0,63600580
0,11419648;0,45655690
0,11436032;0,27680290
0,11452416;0,18707850
0,11468800;0,09735405
0,11485184;0,09735405
0,11501568;0,00762963
0,11517952;0,00762963
0,11534336;0,00762963
0,11550720;0,00762963
0,11567104;0,00762963
0,11583488;0,00762963
0,11599872;0,00762963
0,11616256;0,00762963
0,11632640;0,00762963
0,11649024;0,00762963
0,11665408;0,00762963
0,11681792;0,00762963
0,11698176;0,00762963
0,11714560;0,00762963
0,11730944;0,00762963
0,11747328;0,00762963
0,11763712;0,00762963
0,11780096;0,00762963
0,11796480;0,00762963
0,11812864;0,00762963
0,11829248;0,00762963
0,11845632;0,00762963
0,11862016;0,00762963
0,11878400;0,00762963
0,11894784;0,00762963
0,11911168;0,00762963
0,11927552;0,00762963
0,11943936;0,00762963
0,11960320;0,00762963
0,11976704;0,00762963
0,11993088;0,00762963
0,12009472;0,00762963
0,12025856;0,00762963
0,12042240;0,00762963
0,12058624;0,09735405
0,12075008;0,00762963
0,12091392;0,00762963
0,12107776;0,09735405
0,12124160;0,00762963
0,12140544;0,00762963
0,12156928;0,09735405
0,12173312;0,00762963
0,12189696;0,00762963
0,12206080;0,00762963
0,12222464;0,00762963
0,12238848;0,09735405
0,12255232;0,00762963
0,12271616;0,00762963
0,12288000;0,00762963
0,12304384;0,00762963
0,12320768;0,00762963
0,12337152;0,00762963
0,12353536;0,00762963
0,12369920;0,00762963
0,12386304;0,00762963
0,12402688;0,00762963
0,12419072;0,00762963
0,12435456;0,00762963
0,12451840;0,00762963
0,12468224;0,00762963
0,12484608;-0,08209479
0,12500992;0,00762963
0,12517376;0,00762963
0,12533760;0,00762963
0,12550144;0,00762963
0,12566528;-0,08209479
0,12582912;-0,08209479
0,12599296;-0,08209479
0,12615680;0,00762963
0,12632064;-0,08209479
0,12648448;-0,08209479
0,12664832;-0,08209479
0,12681216;-0,08209479
0,12697600;-0,08209479
0,12713984;-0,08209479
0,12730368;-0,08209479
0,12746752;-0,08209479
0,12763136;-0,08209479
0,12779520;-0,08209479
0,12795904;-0,08209479
0,12812288;-0,08209479
0,12828672;-0,08209479
0,12845056;-0,08209479
0,12861440;-0,08209479
0,12877824;-0,08209479
0,12894208;-0,08209479
0,12910592;-0,08209479
0,12926976;-0,17181920
0,12943360;-0,17181920
0,12959744;-0,17181920
0,12976128;-0,08209479
0,12992512;-0,17181920
0,13008896;-0,08209479
0,13025280;-0,17181920
0,13041664;-0,08209479
0,13058048;-0,08209479
0,13074432;-0,08209479
0,13090816;-0,08209479
0,13107200;-0,08209479
0,13123584;0,00762963
0,13139968;0,00762963
0,13156352;0,00762963
0,13172736;0,00762963
0,13189120;0,00762963
0,13205504;0,00762963
0,13221888;0,18707850
0,13238272;0,45655690
0,13254656;0,72573020
0,13271040;1,26468700
0,13287424;1,62389000
0,13303808;2,07281700
0,13320192;2,52174400
0,13336576;3,06070100
0,13352960;3,41990400
0,13369344;3,95855600
0,13385728;4,40778800
0,13402112;4,85671600
0,13418496;5,21591900
0,13434880;5,48539700
0,13451264;5,57512100
0,13467648;5,66484600
0,13484032;5,66484600
0,13500416;5,66484600
0,13516800;5,75457000
0,13533184;5,75457000
0,13549568;5,75457000
0,13565952;5,75457000
0,13582336;5,66484600
0,13598720;5,75457000
0,13615104;5,75457000
0,13631488;5,66484600
0,13647872;5,66484600
0,13664256;5,75457000
0,13680640;5,75457000
0,13697024;5,75457000
0,13713408;5,75457000
0,13729792;5,75457000
0,13746176;5,66484600
0,13762560;5,66484600
0,13778944;5,75457000
0,13795328;5,75457000
0,13811712;5,75457000
0,13828096;5,75457000
0,13844480;5,75457000
0,13860864;5,66484600
0,13877248;5,75457000
0,13893632;5,75457000
0,13910016;5,75457000
0,13926400;5,75457000
0,13942784;5,75457000
0,13959168;5,75457000
0,13975552;5,75457000
0,13991936;5,75457000
0,14008320;5,75457000
0,14024704;5,75457000
0,14041088;5,75457000
0,14057472;5,75457000
0,14073856;5,75457000
0,14090240;5,75457000
0,14106624;5,75457000
0,14123008;5,75457000
0,14139392;5,75457000
0,14155776;5,75457000
0,14172160;5,75457000
0,14188544;5,66484600
0,14204928;5,75457000
0,14221312;5,75457000
0,14237696;5,75457000
0,14254080;5,75457000
0,14270464;5,75457000
0,14286848;5,75457000
0,14303232;5,66484600
0,14319616;5,66484600
0,14336000;5,75457000
0,14352384;5,66484600
0,14368768;5,75457000
0,14385152;5,75457000
0,14401536;5,75457000
0,14417920;5,75457000
0,14434304;5,75457000
0,14450688;5,75457000
0,14467072;5,75457000
0,14483456;5,75457000
0,14499840;5,75457000
0,14516224;5,66484600
0,14532608;5,75457000
0,14548992;5,66484600
0,14565376;5,66484600
0,14581760;5,66484600
0,14598144;5,57512100
0,14614528;5,39536700
0,14630912;5,21591900
0,14647296;4,94644000
0,14663680;4,58723700
0,14680064;4,31775900
0,14696448;3,95855600
0,14712832;3,68938300
0,14729216;3,33018000
0,14745600;3,06070100
0,14761984;2,70149900
0,14778368;2,34229600
0,14794752;1,98309300
0,14811136;1,62389000
0,14827520;1,26468700
0,14843904;0,90548420
0,14860288;0,54628130
0,14876672;0,36652730
0,14893056;0,18707850
0,14909440;0,18707850
0,14925824;0,09735405
0,14942208;0,00762963
0,14958592;0,00762963
0,14974976;0,00762963
0,14991360;0,00762963
0,15007744;0,00762963
0,15024128;0,00762963
0,15040512;0,00762963
0,15056896;0,00762963
0,15073280;0,00762963
0,15089664;0,00762963
0,15106048;0,00762963
0,15122432;0,00762963
0,15138816;0,00762963
0,15155200;0,00762963
0,15171584;0,00762963
0,15187968;0,00762963
0,15204352;0,00762963
0,15220736;-0,08209479
0,15237120;0,00762963
0,15253504;0,00762963
0,15269888;0,00762963
0,15286272;0,00762963
0,15302656;0,00762963
0,15319040;0,00762963
0,15335424;0,00762963
0,15351808;-0,08209479
0,15368192;0,00762963
0,15384576;0,00762963
0,15400960;0,00762963
0,15417344;0,00762963
0,15433728;0,00762963
0,15450112;0,00762963
0,15466496;0,00762963
0,15482880;0,00762963
0,15499264;0,00762963
0,15515648;0,00762963
0,15532032;0,00762963
0,15548416;0,09735405
0,15564800;0,09735405
0,15581184;0,00762963
0,15597568;0,09735405
0,15613952;0,09735405
0,15630336;0,00762963
0,15646720;0,00762963
0,15663104;0,00762963
0,15679488;0,00762963
0,15695872;0,00762963
0,15712256;0,00762963
0,15728640;0,00762963
0,15745024;0,00762963
0,15761408;0,00762963
0,15777792;0,00762963
0,15794176;0,00762963
0,15810560;0,00762963
0,15826944;0,00762963
0,15843328;0,00762963
0,15859712;0,00762963
0,15876096;0,00762963
0,15892480;0,00762963
0,15908864;0,00762963
0,15925248;0,00762963
0,15941632;0,00762963
0,15958016;0,00762963
0,15974400;0,00762963
0,15990784;0,00762963
0,16007168;0,00762963
0,16023552;0,00762963
0,16039936;-0,08209479
0,16056320;0,00762963
0,16072704;0,00762963
0,16089088;0,00762963
0,16105472;-0,08209479
0,16121856;-0,08209479
0,16138240;-0,08209479
0,16154624;-0,08209479
0,16171008;-0,08209479
0,16187392;-0,08209479
0,16203776;-0,08209479
0,16220160;-0,08209479
0,16236544;-0,08209479
0,16252928;-0,08209479
0,16269312;-0,08209479
0,16285696;-0,08209479
0,16302080;-0,08209479
0,16318464;-0,08209479
0,16334848;-0,17181920
0,16351232;-0,08209479
0,16367616;-0,08209479
0,16384000;-0,08209479
0,16400384;-0,08209479
0,16416768;-0,08209479
0,16433152;-0,08209479
0,16449536;-0,08209479
0,16465920;-0,08209479
0,16482304;-0,08209479
0,16498688;-0,08209479
0,16515072;-0,08209479
0,16531456;-0,08209479
0,16547840;-0,08209479
0,16564224;-0,08209479
0,16580608;-0,08209479
0,16596992;0,00762963
0,16613376;0,00762963
0,16629760;0,00762963
0,16646144;0,00762963
0,16662528;0,00762963
0,16678912;0,00762963
0,16695296;0,00762963
0,16711680;0,00762963
0,16728064;0,18707850
0,16744448;0,36652730
0,16760832;0,81575980
0,16777216;1,17496300
0,16793600;1,62389000
0,16809984;1,98309300
0,16826368;2,52174400
0,16842752;2,97097700
0,16859136;3,41990400
0,16875520;3,86883100
0,16891904;4,31775900
0,16908288;4,85671600
0,16924672;5,21591900
0,16941056;5,39536700
0,16957440;5,57512100
0,16973824;5,66484600
0,16990208;5,66484600
0,17006592;5,66484600
0,17022976;5,75457000
0,17039360;5,75457000
0,17055744;5,75457000
0,17072128;5,75457000
0,17088512;5,75457000
0,17104896;5,75457000
0,17121280;5,75457000
0,17137664;5,66484600
0,17154048;5,75457000
0,17170432;5,75457000
0,17186816;5,75457000
0,17203200;5,75457000
0,17219584;5,75457000
0,17235968;5,66484600
0,17252352;5,75457000
0,17268736;5,75457000
0,17285120;5,75457000
0,17301504;5,75457000
0,17317888;5,75457000
0,17334272;5,75457000
0,17350656;5,75457000
0,17367040;5,75457000
0,17383424;5,75457000
0,17399808;5,75457000
0,17416192;5,75457000
0,17432576;5,75457000
0,17448960;5,75457000
0,17465344;5,66484600
0,17481728;5,66484600
0,17498112;5,75457000
0,17514496;5,75457000
0,17530880;5,75457000
0,17547264;5,75457000
0,17563648;5,75457000
0,17580032;5,75457000
0,17596416;5,75457000
0,17612800;5,66484600
0,17629184;5,75457000
0,17645568;5,75457000
0,17661952;5,75457000
0,17678336;5,75457000
0,17694720;5,75457000
0,17711104;5,75457000
0,17727488;5,75457000
0,17743872;5,75457000
0,17760256;5,66484600
0,17776640;5,75457000
0,17793024;5,75457000
0,17809408;5,75457000
0,17825792;5,75457000
0,17842176;5,75457000
0,17858560;5,66484600
0,17874944;5,66484600
0,17891328;5,75457000
0,17907712;5,66484600
0,17924096;5,75457000
0,17940480;5,75457000
0,17956864;5,75457000
0,17973248;5,75457000
0,17989632;5,66484600
0,18006016;5,66484600
0,18022400;5,66484600
0,18038784;5,75457000
0,18055168;5,66484600
0,18071552;5,66484600
0,18087936;5,66484600
0,18104320;5,57512100
0,18120704;5,39536700
0,18137088;5,12619400
0,18153472;4,85671600
0,18169856;4,58723700
0,18186240;4,22803400
0,18202624;3,95855600
0,18219008;3,59935300
0,18235392;3,33018000
0,18251776;2,97097700
0,18268160;2,61177400
0,18284544;2,25257100
0,18300928;1,98309300
0,18317312;1,53416600
0,18333696;1,17496300
0,18350080;0,81575980
0,18366464;0,54628130
0,18382848;0,27680290
0,18399232;0,18707850
0,18415616;0,09735405
0,18432000;0,09735405
0,18448384;0,00762963
0,18464768;0,00762963
0,18481152;0,00762963
0,18497536;0,00762963
0,18513920;0,00762963
0,18530304;0,00762963
0,18546688;0,00762963
0,18563072;0,00762963
0,18579456;0,00762963
0,18595840;-0,08209479
0,18612224;0,00762963
0,18628608;0,00762963
0,18644992;0,00762963
0,18661376;0,00762963
0,18677760;0,00762963
0,18694144;0,00762963
0,18710528;-0,08209479
0,18726912;0,00762963
0,18743296;-0,08209479
0,18759680;0,00762963
0,18776064;0,00762963
0,18792448;0,00762963
0,18808832;0,00762963
0,18825216;0,00762963
0,18841600;0,00762963
0,18857984;0,00762963
0,18874368;0,00762963
0,18890752;0,00762963
0,18907136;0,00762963
0,18923520;0,00762963
0,18939904;0,00762963
0,18956288;0,09735405
0,18972672;0,09735405
0,18989056;0,00762963
0,19005440;0,00762963
0,19021824;0,00762963
0,19038208;0,00762963
0,19054592;0,00762963
0,19070976;0,00762963
0,19087360;0,09735405
0,19103744;0,00762963
0,19120128;0,00762963
0,19136512;0,00762963
0,19152896;0,09735405
0,19169280;0,00762963
0,19185664;0,00762963
0,19202048;0,00762963
0,19218432;0,00762963
0,19234816;0,00762963
0,19251200;0,00762963
0,19267584;0,00762963
0,19283968;0,00762963
0,19300352;0,00762963
0,19316736;0,00762963
0,19333120;0,00762963
0,19349504;0,00762963
0,19365888;0,00762963
0,19382272;0,00762963
0,19398656;-0,08209479
0,19415040;0,00762963
0,19431424;0,00762963
0,19447808;-0,08209479
0,19464192;-0,08209479
0,19480576;-0,08209479
0,19496960;-0,08209479
0,19513344;0,00762963
0,19529728;-0,08209479
0,19546112;0,00762963
0,19562496;0,00762963
0,19578880;-0,08209479
0,19595264;-0,08209479
0,19611648;-0,08209479
0,19628032;-0,08209479
0,19644416;-0,08209479
0,19660800;-0,08209479
0,19677184;-0,08209479
0,19693568;-0,08209479
0,19709952;-0,08209479
0,19726336;-0,08209479
0,19742720;-0,08209479
0,19759104;-0,08209479
0,19775488;-0,08209479
0,19791872;-0,08209479
0,19808256;-0,08209479
0,19824640;-0,08209479
0,19841024;-0,08209479
0,19857408;-0,08209479
0,19873792;-0,08209479
0,19890176;-0,08209479
0,19906560;-0,08209479
0,19922944;-0,08209479
0,19939328;0,00762963
0,19955712;0,00762963
0,19972096;0,00762963
0,19988480;0,00762963
0,20004864;0,00762963
0,20021248;0,00762963
0,20037632;0,00762963
0,20054016;0,00762963
0,20070400;0,00762963
0,20086784;0,09735405
0,20103168;0,27680290
0,20119552;0,63600580
0,20135936;0,99520860
0,20152320;1,35441100
0,20168704;1,89336800
0,20185088;2,34229600
0,20201472;2,70149900
0,20217856;3,15042600
0,20234240;3,68938300
0,20250624;4,13831000
0,20267008;4,58723700
0,20283392;5,03616400
0,20299776;5,30564300
0,20316160;5,57512100
0,20332544;5,57512100
0,20348928;5,66484600
0,20365312;5,75457000
0,20381696;5,66484600
0,20398080;5,75457000
0,20414464;5,75457000
0,20430848;5,75457000
0,20447232;5,75457000
0,20463616;5,75457000
0,20480000;5,75457000
0,20496384;5,75457000
0,20512768;5,75457000
0,20529152;5,75457000
0,20545536;5,75457000
0,20561920;5,75457000
0,20578304;5,66484600
0,20594688;5,75457000
0,20611072;5,75457000
0,20627456;5,75457000
0,20643840;5,75457000
0,20660224;5,66484600
0,20676608;5,66484600
0,20692992;5,75457000
0,20709376;5,75457000
0,20725760;5,75457000
0,20742144;5,75457000
0,20758528;5,66484600
0,20774912;5,75457000
0,20791296;5,75457000
0,20807680;5,75457000
0,20824064;5,75457000
0,20840448;5,75457000
0,20856832;5,75457000
0,20873216;5,75457000
0,20889600;5,75457000
0,20905984;5,75457000
0,20922368;5,75457000
0,20938752;5,75457000
0,20955136;5,75457000
0,20971520;5,66484600
0,20987904;5,75457000
0,21004288;5,75457000
0,21020672;5,75457000
0,21037056;5,75457000
0,21053440;5,75457000
0,21069824;5,66484600
0,21086208;5,75457000
0,21102592;5,66484600
0,21118976;5,75457000
0,21135360;5,75457000
0,21151744;5,75457000
0,21168128;5,75457000
0,21184512;5,75457000
0,21200896;5,66484600
0,21217280;5,75457000
0,21233664;5,75457000
0,21250048;5,75457000
0,21266432;5,75457000
0,21282816;5,75457000
0,21299200;5,75457000
0,21315584;5,75457000
0,21331968;5,75457000
0,21348352;5,75457000
0,21364736;5,75457000
0,21381120;5,75457000
0,21397504;5,75457000
0,21413888;5,66484600
0,21430272;5,75457000
0,21446656;5,66484600
0,21463040;5,66484600
0,21479424;5,57512100
0,21495808;5,39536700
0,21512192;5,12619400
0,21528576;4,85671600
0,21544960;4,58723700
0,21561344;4,22803400
0,21577728;3,95855600
0,21594112;3,59935300
0,21610496;3,24015000
0,21626880;2,97097700
0,21643264;2,70149900
0,21659648;2,25257100
0,21676032;1,89336800
0,21692416;1,53416600
0,21708800;1,17496300
0,21725184;0,81575980
0,21741568;0,54628130
0,21757952;0,27680290
0,21774336;0,18707850
0,21790720;0,18707850
0,21807104;0,09735405
0,21823488;0,00762963
0,21839872;0,00762963
0,21856256;0,00762963
0,21872640;0,00762963
0,21889024;0,00762963
0,21905408;0,00762963
0,21921792;0,00762963
0,21938176;-0,08209479
0,21954560;0,00762963
0,21970944;0,00762963
0,21987328;0,00762963
0,22003712;0,00762963
0,22020096;0,00762963
0,22036480;0,00762963
0,22052864;0,00762963
0,22069248;0,00762963
0,22085632;0,00762963
0,22102016;0,00762963
0,22118400;-0,08209479
0,22134784;0,00762963
0,22151168;0,00762963
0,22167552;0,00762963
0,22183936;-0,08209479
0,22200320;0,00762963
0,22216704;0,00762963
0,22233088;0,00762963
0,22249472;0,00762963
0,22265856;0,00762963
0,22282240;-0,08209479
0,22298624;0,00762963
0,22315008;0,00762963
0,22331392;0,00762963
0,22347776;0,00762963
0,22364160;0,00762963
0,22380544;0,09735405
0,22396928;0,09735405
0,22413312;0,00762963
0,22429696;0,00762963
0,22446080;0,00762963
0,22462464;0,09735405
0,22478848;0,09735405
0,22495232;0,00762963
0,22511616;0,00762963
0,22528000;0,00762963
0,22544384;0,09735405
0,22560768;0,00762963
0,22577152;0,00762963
0,22593536;0,00762963
0,22609920;0,00762963
0,22626304;0,00762963
0,22642688;0,00762963
0,22659072;0,00762963
0,22675456;0,00762963
0,22691840;0,00762963
0,22708224;0,00762963
0,22724608;0,00762963
0,22740992;0,00762963
0,22757376;0,00762963
0,22773760;0,00762963
0,22790144;0,00762963
0,22806528;0,00762963
0,22822912;-0,08209479
0,22839296;0,00762963
0,22855680;0,00762963
0,22872064;0,00762963
0,22888448;0,00762963
0,22904832;0,00762963
0,22921216;-0,08209479
0,22937600;-0,08209479
0,22953984;-0,08209479
0,22970368;-0,08209479
0,22986752;-0,08209479
0,23003136;-0,08209479
0,23019520;-0,08209479
0,23035904;-0,08209479
0,23052288;-0,08209479
0,23068672;-0,08209479
0,23085056;-0,08209479
0,23101440;-0,08209479
0,23117824;-0,08209479
0,23134208;-0,08209479
0,23150592;-0,08209479
0,23166976;-0,08209479
0,23183360;-0,08209479
0,23199744;-0,08209479
0,23216128;-0,08209479
0,23232512;-0,08209479
0,23248896;-0,08209479
0,23265280;-0,17181920
0,23281664;-0,17181920
0,23298048;-0,17181920
0,23314432;-0,08209479
0,23330816;-0,08209479
0,23347200;-0,08209479
0,23363584;-0,08209479
0,23379968;-0,08209479
0,23396352;-0,08209479
0,23412736;-0,08209479
0,23429120;0,00762963
0,23445504;0,00762963
0,23461888;0,00762963
0,23478272;0,00762963
0,23494656;0,00762963
0,23511040;0,00762963
0,23527424;0,00762963
0,23543808;0,09735405
0,23560192;0,27680290
0,23576576;0,63600580
0,23592960;1,08493300
0,23609344;1,44413600
0,23625728;1,89336800
0,23642112;2,34229600
0,23658496;2,79122300
0,23674880;3,24015000
0,23691264;3,77910700
0,23707648;4,22803400
0,23724032;4,67696100
0,23740416;5,03616400
0,23756800;5,39536700
0,23773184;5,57512100
0,23789568;5,66484600
0,23805952;5,66484600
0,23822336;5,75457000
0,23838720;5,66484600
0,23855104;5,75457000
0,23871488;5,75457000
0,23887872;5,75457000
0,23904256;5,75457000
0,23920640;5,75457000
0,23937024;5,75457000
0,23953408;5,75457000
0,23969792;5,75457000
0,23986176;5,75457000
0,24002560;5,75457000
0,24018944;5,75457000
0,24035328;5,75457000
0,24051712;5,75457000
0,24068096;5,75457000
0,24084480;5,75457000
0,24100864;5,75457000
0,24117248;5,75457000
0,24133632;5,75457000
0,24150016;5,75457000
0,24166400;5,75457000
0,24182784;5,66484600
0,24199168;5,75457000
0,24215552;5,75457000
0,24231936;5,75457000
0,24248320;5,75457000
0,24264704;5,75457000
0,24281088;5,75457000
0,24297472;5,75457000
0,24313856;5,75457000
0,24330240;5,75457000
0,24346624;5,66484600
0,24363008;5,75457000
0,24379392;5,75457000
0,24395776;5,75457000
0,24412160;5,75457000
0,24428544;5,66484600
0,24444928;5,75457000
0,24461312;5,75457000
0,24477696;5,75457000
0,24494080;5,75457000
0,24510464;5,66484600
0,24526848;5,66484600
0,24543232;5,75457000
0,24559616;5,75457000
0,24576000;5,75457000
0,24592384;5,75457000
0,24608768;5,75457000
0,24625152;5,75457000
0,24641536;5,75457000
0,24657920;5,75457000
0,24674304;5,75457000
0,24690688;5,75457000
0,24707072;5,75457000
0,24723456;5,75457000
0,24739840;5,66484600
0,24756224;5,75457000
0,24772608;5,75457000
0,24788992;5,75457000
0,24805376;5,75457000
0,24821760;5,75457000
0,24838144;5,75457000
0,24854528;5,75457000
0,24870912;5,75457000
0,24887296;5,75457000
0,24903680;5,66484600
0,24920064;5,57512100
0,24936448;5,57512100
0,24952832;5,30564300
0,24969216;5,03616400
0,24985600;4,76699100
0,25001984;4,40778800
0,25018368;4,13831000
0,25034752;3,77910700
0,25051136;3,50962900
0,25067520;3,15042600
0,25083904;2,79122300
0,25100288;2,43202000
0,25116672;2,07281700
0,25133056;1,80333900
0,25149440;1,44413600
0,25165824;1,08493300
0,25182208;0,72573020
0,25198592;0,45655690
0,25214976;0,27680290
0,25231360;0,18707850
0,25247744;0,09735405
0,25264128;0,00762963
0,25280512;0,00762963
0,25296896;0,00762963
0,25313280;0,00762963
0,25329664;0,00762963
0,25346048;0,00762963
0,25362432;0,00762963
0,25378816;0,00762963
0,25395200;0,00762963
0,25411584;0,00762963
0,25427968;0,00762963
0,25444352;0,00762963
0,25460736;0,00762963
0,25477120;0,00762963
0,25493504;0,00762963
0,25509888;0,00762963
0,25526272;0,00762963
0,25542656;0,00762963
0,25559040;0,00762963
0,25575424;0,00762963
0,25591808;0,00762963
0,25608192;0,00762963
0,25624576;0,00762963
0,25640960;0,00762963
0,25657344;0,00762963
0,25673728;0,00762963
0,25690112;0,00762963
0,25706496;0,00762963
0,25722880;0,00762963
0,25739264;0,00762963
0,25755648;0,00762963
0,25772032;0,00762963
0,25788416;0,00762963
0,25804800;0,00762963
0,25821184;0,00762963
0,25837568;0,00762963
0,25853952;0,00762963
0,25870336;0,00762963
0,25886720;0,00762963
0,25903104;0,00762963
0,25919488;0,00762963
0,25935872;0,00762963
0,25952256;0,09735405
0,25968640;0,00762963
0,25985024;0,00762963
0,26001408;0,00762963
0,26017792;0,00762963
0,26034176;0,00762963
0,26050560;0,00762963
0,26066944;0,00762963
0,26083328;0,00762963
0,26099712;0,00762963
0,26116096;0,00762963
0,26132480;0,00762963
0,26148864;0,00762963
0,26165248;0,00762963
0,26181632;0,00762963
0,26198016;0,00762963
0,26214400;0,00762963
0,26230784;0,00762963
0,26247168;0,00762963
0,26263552;0,00762963
0,26279936;0,00762963
0,26296320;0,00762963
0,26312704;0,00762963
0,26329088;0,00762963
0,26345472;0,00762963
0,26361856;0,00762963
0,26378240;0,00762963
0,26394624;-0,08209479
0,26411008;-0,08209479
0,26427392;-0,08209479
0,26443776;0,00762963
0,26460160;-0,08209479
0,26476544;-0,08209479
0,26492928;-0,08209479
0,26509312;-0,08209479
0,26525696;-0,08209479
0,26542080;-0,08209479
0,26558464;-0,08209479
0,26574848;-0,08209479
0,26591232;-0,08209479
0,26607616;-0,08209479
0,26624000;-0,08209479
0,26640384;-0,08209479
0,26656768;-0,08209479
0,26673152;-0,08209479
0,26689536;-0,08209479
0,26705920;-0,08209479
0,26722304;-0,08209479
0,26738688;-0,08209479
0,26755072;-0,08209479
0,26771456;-0,08209479
0,26787840;-0,08209479
0,26804224;-0,08209479
0,26820608;-0,08209479
0,26836992;-0,08209479
0,26853376;-0,08209479
0,26869760;-0,08209479
0,26886144;-0,08209479
0,26902528;-0,08209479
0,26918912;-0,08209479
0,26935296;0,00762963
0,26951680;0,00762963
0,26968064;0,00762963
0,26984448;0,00762963
0,27000832;0,00762963
0,27017216;0,00762963
0,27033600;0,00762963
0,27049984;0,09735405
0,27066368;0,27680290
0,27082752;0,72573020
0,27099136;1,08493300
0,27115520;1,53416600
0,27131904;1,98309300
0,27148288;2,43202000
0,27164672;2,88094700
0,27181056;3,41990400
0,27197440;3,77910700
0,27213824;4,22803400
0,27230208;4,67696100
0,27246592;5,12619400
0,27262976;5,39536700
0,27279360;5,57512100
0,27295744;5,66484600
0,27312128;5,66484600
0,27328512;5,75457000
0,27344896;5,75457000
0,27361280;5,75457000
0,27377664;5,75457000
0,27394048;5,75457000
0,27410432;5,75457000
0,27426816;5,75457000
0,27443200;5,75457000
0,27459584;5,75457000
0,27475968;5,75457000
0,27492352;5,66484600
0,27508736;5,75457000
0,27525120;5,75457000
0,27541504;5,75457000
0,27557888;5,75457000
0,27574272;5,75457000
0,27590656;5,75457000
0,27607040;5,75457000
0,27623424;5,75457000
0,27639808;5,75457000
0,27656192;5,75457000
0,27672576;5,75457000
0,27688960;5,75457000
0,27705344;5,75457000
0,27721728;5,75457000
0,27738112;5,75457000
0,27754496;5,75457000
0,27770880;5,75457000
0,27787264;5,66484600
0,27803648;5,75457000
0,27820032;5,75457000
0,27836416;5,75457000
0,27852800;5,66484600
0,27869184;5,75457000
0,27885568;5,66484600
0,27901952;5,75457000
0,27918336;5,66484600
0,27934720;5,66484600
0,27951104;5,75457000
0,27967488;5,75457000
0,27983872;5,75457000
0,28000256;5,75457000
0,28016640;5,66484600
0,28033024;5,75457000
0,28049408;5,75457000
0,28065792;5,75457000
0,28082176;5,75457000
0,28098560;5,66484600
0,28114944;5,66484600
0,28131328;5,75457000
0,28147712;5,66484600
0,28164096;5,66484600
0,28180480;5,75457000
0,28196864;5,66484600
0,28213248;5,75457000
0,28229632;5,66484600
0,28246016;5,75457000
0,28262400;5,75457000
0,28278784;5,75457000
0,28295168;5,66484600
0,28311552;5,75457000
0,28327936;5,66484600
0,28344320;5,75457000
0,28360704;5,66484600
0,28377088;5,66484600
0,28393472;5,75457000
0,28409856;5,66484600
0,28426240;5,57512100
0,28442624;5,48539700
0,28459008;5,21591900
0,28475392;4,94644000
0,28491776;4,67696100
0,28508160;4,31775900
0,28524544;4,04858500
0,28540928;3,68938300
0,28557312;3,33018000
0,28573696;3,06070100
0,28590080;2,70149900
0,28606464;2,34229600
0,28622848;1,98309300
0,28639232;1,62389000
0,28655616;1,26468700
0,28672000;0,90548420
0,28688384;0,54628130
0,28704768;0,27680290
0,28721152;0,18707850
0,28737536;0,18707850
0,28753920;0,09735405
0,28770304;0,00762963
0,28786688;0,00762963
0,28803072;0,00762963
0,28819456;0,00762963
0,28835840;0,00762963
0,28852224;0,00762963
0,28868608;0,00762963
0,28884992;0,00762963
0,28901376;0,00762963
0,28917760;0,00762963
0,28934144;0,00762963
0,28950528;0,00762963
0,28966912;0,00762963
0,28983296;0,00762963
0,28999680;0,00762963
0,29016064;0,00762963
0,29032448;0,00762963
0,29048832;0,00762963
0,29065216;0,00762963
0,29081600;0,00762963
0,29097984;0,00762963
0,29114368;0,00762963
0,29130752;0,00762963
0,29147136;0,00762963
0,29163520;0,00762963
0,29179904;0,00762963
0,29196288;0,00762963
0,29212672;0,00762963
0,29229056;-0,08209479
0,29245440;0,00762963
0,29261824;0,00762963
0,29278208;0,00762963
0,29294592;0,09735405
0,29310976;0,09735405
0,29327360;0,00762963
0,29343744;0,00762963
0,29360128;0,00762963
0,29376512;0,00762963
0,29392896;0,00762963
0,29409280;0,00762963
0,29425664;0,00762963
0,29442048;0,00762963
0,29458432;0,09735405
0,29474816;0,00762963
0,29491200;0,00762963
0,29507584;0,00762963
0,29523968;0,00762963
0,29540352;0,00762963
0,29556736;0,00762963
0,29573120;0,00762963
0,29589504;0,00762963
0,29605888;0,00762963
0,29622272;0,00762963
0,29638656;0,00762963
0,29655040;0,00762963
0,29671424;0,00762963
0,29687808;0,00762963
0,29704192;0,00762963
0,29720576;0,00762963
0,29736960;0,00762963
0,29753344;0,00762963
0,29769728;0,00762963
0,29786112;-0,08209479
0,29802496;0,00762963
0,29818880;-0,08209479
0,29835264;0,00762963
0,29851648;0,00762963
0,29868032;0,00762963
0,29884416;-0,08209479
0,29900800;-0,08209479
0,29917184;-0,08209479
0,29933568;-0,08209479
0,29949952;-0,08209479
0,29966336;-0,08209479
0,29982720;-0,08209479
0,29999104;-0,08209479
0,30015488;-0,08209479
0,30031872;-0,08209479
0,30048256;-0,08209479
0,30064640;-0,08209479
0,30081024;-0,08209479
0,30097408;-0,08209479
0,30113792;-0,08209479
0,30130176;-0,08209479
0,30146560;-0,08209479
0,30162944;-0,08209479
0,30179328;-0,08209479
0,30195712;-0,08209479
0,30212096;-0,08209479
0,30228480;-0,08209479
0,30244864;-0,08209479
0,30261248;0,00762963
0,30277632;0,00762963
0,30294016;0,00762963
0,30310400;0,00762963
0,30326784;0,00762963
0,30343168;0,00762963
0,30359552;0,00762963
0,30375936;0,00762963
0,30392320;0,00762963
0,30408704;0,00762963
0,30425088;0,27680290
0,30441472;0,54628130
0,30457856;0,90548420
0,30474240;1,35441100
0,30490624;1,80333900
0,30507008;2,16254200
0,30523392;2,70149900
0,30539776;3,15042600
0,30556160;3,68938300
0,30572544;4,13831000
0,30588928;4,58723700
0,30605312;4,94644000
0,30621696;5,30564300
0,30638080;5,48539700
0,30654464;5,66484600
0,30670848;5,66484600
0,30687232;5,66484600
0,30703616;5,75457000
0,30720000;5,75457000
0,30736384;5,66484600
0,30752768;5,75457000
0,30769152;5,75457000
0,30785536;5,75457000
0,30801920;5,66484600
0,30818304;5,66484600
0,30834688;5,75457000
0,30851072;5,66484600
0,30867456;5,75457000
0,30883840;5,75457000
0,30900224;5,75457000
0,30916608;5,75457000
0,30932992;5,75457000
0,30949376;5,75457000
0,30965760;5,75457000
0,30982144;5,75457000
0,30998528;5,75457000
0,31014912;5,75457000
0,31031296;5,75457000
0,31047680;5,75457000
0,31064064;5,75457000
0,31080448;5,66484600
0,31096832;5,75457000
0,31113216;5,75457000
0,31129600;5,66484600
0,31145984;5,75457000
0,31162368;5,75457000
0,31178752;5,75457000
0,31195136;5,75457000
0,31211520;5,75457000
0,31227904;5,75457000
0,31244288;5,75457000
0,31260672;5,75457000
0,31277056;5,75457000
0,31293440;5,75457000
0,31309824;5,75457000
0,31326208;5,75457000
0,31342592;5,66484600
0,31358976;5,75457000
0,31375360;5,75457000
0,31391744;5,75457000
0,31408128;5,75457000
0,31424512;5,66484600
0,31440896;5,66484600
0,31457280;5,66484600
0,31473664;5,66484600
0,31490048;5,75457000
0,31506432;5,75457000
0,31522816;5,75457000
0,31539200;5,75457000
0,31555584;5,75457000
0,31571968;5,75457000
0,31588352;5,75457000
0,31604736;5,66484600
0,31621120;5,75457000
0,31637504;5,75457000
0,31653888;5,75457000
0,31670272;5,75457000
0,31686656;5,66484600
0,31703040;5,75457000
0,31719424;5,75457000
0,31735808;5,75457000
0,31752192;5,75457000
0,31768576;5,75457000
0,31784960;5,66484600
0,31801344;5,57512100
0,31817728;5,39536700
0,31834112;5,21591900
0,31850496;4,85671600
0,31866880;4,58723700
0,31883264;4,22803400
0,31899648;3,95855600
0,31916032;3,59935300
0,31932416;3,24015000
0,31948800;2,97097700
0,31965184;2,61177400
0,31981568;2,25257100
0,31997952;1,98309300
0,32014336;1,62389000
0,32030720;1,26468700
0,32047104;0,90548420
0,32063488;0,54628130
0,32079872;0,36652730
0,32096256;0,18707850
0,32112640;0,09735405
0,32129024;0,09735405
0,32145408;0,00762963
0,32161792;0,00762963
0,32178176;0,00762963
0,32194560;0,00762963
0,32210944;0,00762963
0,32227328;0,00762963
0,32243712;0,00762963
0,32260096;0,00762963
0,32276480;0,00762963
0,32292864;0,00762963
0,32309248;0,00762963
0,32325632;0,00762963
0,32342016;0,00762963
0,32358400;0,00762963
0,32374784;0,00762963
0,32391168;0,00762963
0,32407552;0,00762963
0,32423936;0,00762963
0,32440320;0,00762963
0,32456704;0,00762963
0,32473088;0,00762963
0,32489472;0,00762963
0,32505856;0,00762963
0,32522240;0,00762963
0,32538624;0,00762963
0,32555008;0,00762963
0,32571392;0,00762963
0,32587776;0,00762963
0,32604160;0,00762963
0,32620544;0,00762963
0,32636928;0,00762963
0,32653312;0,00762963
0,32669696;0,00762963
0,32686080;0,09735405
0,32702464;0,09735405
0,32718848;0,09735405
0,32735232;0,09735405
0,32751616;0,00762963
0,32768000;0,00762963
0,32784384;0,00762963
0,32800768;0,00762963
0,32817152;0,00762963
0,32833536;0,00762963
0,32849920;0,00762963
0,32866304;0,00762963
0,32882688;0,00762963
0,32899072;0,00762963
0,32915456;0,00762963
0,32931840;0,00762963
0,32948224;0,09735405
0,32964608;0,00762963
0,32980992;0,00762963
0,32997376;0,00762963
0,33013760;0,00762963
0,33030144;0,00762963
0,33046528;0,00762963
0,33062912;0,00762963
0,33079296;0,00762963
0,33095680;0,00762963
0,33112064;-0,08209479
0,33128448;0,00762963
0,33144832;0,00762963
0,33161216;-0,08209479
0,33177600;0,00762963
0,33193984;0,00762963
0,33210368;-0,08209479
0,33226752;-0,08209479
0,33243136;0,00762963
0,33259520;-0,08209479
0,33275904;-0,08209479
0,33292288;-0,08209479
0,33308672;-0,08209479
0,33325056;0,00762963
0,33341440;-0,08209479
0,33357824;-0,08209479
0,33374208;-0,08209479
0,33390592;-0,08209479
0,33406976;-0,08209479
0,33423360;-0,08209479
0,33439744;-0,08209479
0,33456128;-0,08209479
0,33472512;-0,08209479
0,33488896;-0,08209479
0,33505280;-0,08209479
0,33521664;-0,08209479
0,33538048;-0,08209479
0,33554432;-0,17181920
0,33570816;-0,08209479
0,33587200;-0,17181920
0,33603584;-0,08209479
0,33619968;-0,08209479
0,33636352;-0,08209479
0,33652736;-0,08209479
0,33669120;-0,17181920
0,33685504;-0,08209479
0,33701888;-0,08209479
0,33718272;-0,08209479
0,33734656;-0,08209479
0,33751040;-0,08209479
0,33767424;-0,08209479
0,33783808;0,00762963
0,33800192;0,00762963
0,33816576;0,00762963
0,33832960;0,00762963
0,33849344;0,00762963
0,33865728;0,09735405
0,33882112;0,27680290
0,33898496;0,63600580
0,33914880;0,99520860
0,33931264;1,44413600
0,33947648;1,89336800
0,33964032;2,34229600
0,33980416;2,79122300
0,33996800;3,24015000
0,34013184;3,77910700
0,34029568;4,22803400
0,34045952;4,67696100
0,34062336;5,03616400
0,34078720;5,39536700
0,34095104;5,57512100
0,34111488;5,66484600
0,34127872;5,66484600
0,34144256;5,75457000
0,34160640;5,75457000
0,34177024;5,75457000
0,34193408;5,75457000
0,34209792;5,75457000
0,34226176;5,75457000
0,34242560;5,75457000
0,34258944;5,66484600
0,34275328;5,75457000
0,34291712;5,75457000
0,34308096;5,75457000
0,34324480;5,75457000
0,34340864;5,75457000
0,34357248;5,75457000
0,34373632;5,75457000
0,34390016;5,75457000
0,34406400;5,75457000
0,34422784;5,75457000
0,34439168;5,75457000
0,34455552;5,75457000
0,34471936;5,75457000
0,34488320;5,75457000
0,34504704;5,75457000
0,34521088;5,75457000
0,34537472;5,75457000
0,34553856;5,75457000
0,34570240;5,75457000
0,34586624;5,75457000
0,34603008;5,75457000
0,34619392;5,75457000
0,34635776;5,75457000
0,34652160;5,66484600
0,34668544;5,75457000
0,34684928;5,75457000
0,34701312;5,75457000
0,34717696;5,75457000
0,34734080;5,75457000
0,34750464;5,75457000
0,34766848;5,75457000
0,34783232;5,75457000
0,34799616;5,66484600
0,34816000;5,75457000
0,34832384;5,75457000
0,34848768;5,75457000
0,34865152;5,75457000
0,34881536;5,75457000
0,34897920;5,75457000
0,34914304;5,75457000
0,34930688;5,75457000
0,34947072;5,75457000
0,34963456;5,75457000
0,34979840;5,75457000
0,34996224;5,75457000
0,35012608;5,66484600
0,35028992;5,75457000
0,35045376;5,75457000
0,35061760;5,75457000
0,35078144;5,75457000
0,35094528;5,75457000
0,35110912;5,75457000
0,35127296;5,75457000
0,35143680;5,75457000
0,35160064;5,75457000
0,35176448;5,66484600
0,35192832;5,75457000
0,35209216;5,66484600
0,35225600;5,66484600
0,35241984;5,66484600
0,35258368;5,48539700
0,35274752;5,30564300
0,35291136;5,03616400
0,35307520;4,67696100
0,35323904;4,40778800
0,35340288;4,13831000
0,35356672;3,77910700
0,35373056;3,41990400
0,35389440;3,06070100
0,35405824;2,79122300
0,35422208;2,43202000
0,35438592;2,07281700
0,35454976;1,80333900
0,35471360;1,35441100
0,35487744;0,99520860
0,35504128;0,72573020
0,35520512;0,36652730
0,35536896;0,27680290
0,35553280;0,18707850
0,35569664;0,09735405
0,35586048;0,00762963
0,35602432;0,00762963
0,35618816;0,00762963
0,35635200;0,00762963
0,35651584;0,00762963
0,35667968;0,00762963
0,35684352;0,00762963
0,35700736;0,00762963
0,35717120;0,00762963
0,35733504;0,00762963
0,35749888;-0,08209479
0,35766272;-0,08209479
0,35782656;0,00762963
0,35799040;0,00762963
0,35815424;0,00762963
0,35831808;0,00762963
0,35848192;0,00762963
0,35864576;0,00762963
0,35880960;0,00762963
0,35897344;-0,08209479
0,35913728;0,00762963
0,35930112;0,00762963
0,35946496;0,00762963
0,35962880;0,00762963
0,35979264;0,00762963
0,35995648;0,00762963
0,36012032;0,00762963
0,36028416;0,00762963
0,36044800;0,00762963
0,36061184;0,00762963
0,36077568;0,00762963
0,36093952;0,00762963
0,36110336;0,00762963
0,36126720;0,00762963
0,36143104;0,00762963
0,36159488;0,00762963
0,36175872;0,00762963
0,36192256;0,00762963
0,36208640;0,09735405
0,36225024;0,00762963
0,36241408;0,09735405
0,36257792;0,09735405
0,36274176;0,00762963
0,36290560;0,00762963
0,36306944;0,09735405
0,36323328;0,00762963
0,36339712;0,00762963
0,36356096;0,00762963
0,36372480;0,00762963
0,36388864;0,00762963
0,36405248;0,00762963
0,36421632;0,00762963
0,36438016;0,00762963
0,36454400;0,09735405
0,36470784;0,00762963
0,36487168;0,00762963
0,36503552;0,00762963
0,36519936;0,00762963
0,36536320;0,00762963
0,36552704;0,00762963
0,36569088;0,00762963
0,36585472;0,00762963
0,36601856;0,00762963
0,36618240;0,00762963
0,36634624;0,00762963
0,36651008;0,00762963
0,36667392;0,00762963
0,36683776;-0,08209479
0,36700160;-0,08209479
0,36716544;-0,08209479
0,36732928;0,00762963
0,36749312;0,00762963
0,36765696;-0,08209479
0,36782080;0,00762963
0,36798464;-0,08209479
0,36814848;-0,08209479
0,36831232;-0,08209479
0,36847616;-0,08209479
0,36864000;-0,08209479
0,36880384;-0,08209479
0,36896768;-0,08209479
0,36913152;-0,08209479
0,36929536;-0,08209479
0,36945920;-0,08209479
0,36962304;-0,08209479
0,36978688;-0,08209479
0,36995072;-0,08209479
0,37011456;-0,08209479
0,37027840;-0,08209479
0,37044224;-0,08209479
0,37060608;-0,08209479
0,37076992;-0,08209479
0,37093376;-0,17181920
0,37109760;-0,08209479
0,37126144;-0,08209479
0,37142528;-0,08209479
0,37158912;-0,08209479
0,37175296;-0,08209479
0,37191680;-0,08209479
0,37208064;-0,08209479
0,37224448;-0,08209479
0,37240832;-0,08209479
0,37257216;0,00762963
0,37273600;0,00762963
0,37289984;0,00762963
0,37306368;0,00762963
0,37322752;0,00762963
0,37339136;0,00762963
0,37355520;0,00762963
0,37371904;0,09735405
0,37388288;0,36652730
0,37404672;0,72573020
0,37421056;1,08493300
0,37437440;1,53416600
0,37453824;1,98309300
0,37470208;2,43202000
0,37486592;2,88094700
0,37502976;3,33018000
0,37519360;3,86883100
0,37535744;4,22803400
0,37552128;4,76699100
0,37568512;5,03616400
0,37584896;5,39536700
0,37601280;5,57512100
0,37617664;5,66484600
0,37634048;5,66484600
0,37650432;5,75457000
0,37666816;5,66484600
0,37683200;5,75457000
0,37699584;5,75457000
0,37715968;5,75457000
0,37732352;5,75457000
0,37748736;5,75457000
0,37765120;5,75457000
0,37781504;5,75457000
0,37797888;5,66484600
0,37814272;5,75457000
0,37830656;5,75457000
0,37847040;5,75457000
0,37863424;5,66484600
0,37879808;5,75457000
0,37896192;5,75457000
0,37912576;5,75457000
0,37928960;5,75457000
0,37945344;5,75457000
0,37961728;5,75457000
0,37978112;5,75457000
0,37994496;5,75457000
0,38010880;5,75457000
0,38027264;5,75457000
0,38043648;5,75457000
0,38060032;5,75457000
0,38076416;5,75457000
0,38092800;5,75457000
0,38109184;5,75457000
0,38125568;5,75457000
0,38141952;5,75457000
0,38158336;5,75457000
0,38174720;5,75457000
0,38191104;5,75457000
0,38207488;5,75457000
0,38223872;5,75457000
0,38240256;5,75457000
0,38256640;5,75457000
0,38273024;5,75457000
0,38289408;5,75457000
0,38305792;5,75457000
0,38322176;5,66484600
0,38338560;5,75457000
0,38354944;5,75457000
0,38371328;5,75457000
0,38387712;5,75457000
0,38404096;5,75457000
0,38420480;5,75457000
0,38436864;5,75457000
0,38453248;5,75457000
0,38469632;5,75457000
0,38486016;5,75457000
0,38502400;5,75457000
0,38518784;5,75457000
0,38535168;5,66484600
0,38551552;5,66484600
0,38567936;5,75457000
0,38584320;5,75457000
0,38600704;5,75457000
0,38617088;5,75457000
0,38633472;5,75457000
0,38649856;5,75457000
0,38666240;5,75457000
0,38682624;5,75457000
0,38699008;5,75457000
0,38715392;5,75457000
0,38731776;5,66484600
0,38748160;5,57512100
0,38764544;5,48539700
0,38780928;5,21591900
0,38797312;4,94644000
0,38813696;4,67696100
0,38830080;4,31775900
0,38846464;3,95855600
0,38862848;3,68938300
0,38879232;3,33018000
0,38895616;2,97097700
0,38912000;2,70149900
0,38928384;2,34229600
0,38944768;1,98309300
0,38961152;1,62389000
0,38977536;1,26468700
0,38993920;0,90548420
0,39010304;0,63600580
0,39026688;0,36652730
0,39043072;0,18707850
0,39059456;0,09735405
0,39075840;0,09735405
0,39092224;0,00762963
0,39108608;0,00762963
0,39124992;0,00762963
0,39141376;0,00762963
0,39157760;0,00762963
0,39174144;0,00762963
0,39190528;0,00762963
0,39206912;0,00762963
0,39223296;0,00762963
0,39239680;0,00762963
0,39256064;0,00762963
0,39272448;0,00762963
0,39288832;0,00762963
0,39305216;0,00762963
0,39321600;0,00762963
0,39337984;0,00762963
0,39354368;0,00762963
0,39370752;0,00762963
0,39387136;0,00762963
0,39403520;0,00762963
0,39419904;0,00762963
0,39436288;-0,08209479
0,39452672;0,00762963
0,39469056;0,00762963
0,39485440;0,00762963
0,39501824;0,00762963
0,39518208;0,00762963
0,39534592;0,00762963
0,39550976;0,00762963
0,39567360;0,00762963
0,39583744;0,00762963
0,39600128;0,00762963
0,39616512;0,00762963
0,39632896;0,09735405
0,39649280;0,09735405
0,39665664;0,00762963
0,39682048;0,09735405
0,39698432;0,00762963
0,39714816;0,00762963
0,39731200;0,00762963
0,39747584;0,00762963
0,39763968;0,00762963
0,39780352;0,00762963
0,39796736;0,09735405
0,39813120;0,00762963
0,39829504;0,00762963
0,39845888;0,00762963
0,39862272;0,00762963
0,39878656;0,00762963
0,39895040;0,00762963
0,39911424;0,00762963
0,39927808;0,00762963
0,39944192;0,00762963
0,39960576;0,00762963
0,39976960;0,00762963
0,39993344;0,00762963
0,40009728;0,00762963
0,40026112;-0,08209479
0,40042496;-0,08209479
0,40058880;0,00762963
0,40075264;0,00762963
0,40091648;0,00762963
0,40108032;0,00762963
0,40124416;-0,08209479
0,40140800;0,00762963
0,40157184;-0,08209479
0,40173568;0,00762963
0,40189952;-0,08209479
0,40206336;0,00762963
0,40222720;-0,08209479
0,40239104;-0,08209479
0,40255488;-0,08209479
0,40271872;-0,08209479
0,40288256;-0,08209479
0,40304640;0,00762963
0,40321024;-0,08209479
0,40337408;-0,08209479
0,40353792;-0,08209479
0,40370176;-0,08209479
0,40386560;0,00762963
0,40402944;-0,08209479
0,40419328;-0,08209479
0,40435712;-0,08209479
0,40452096;-0,08209479
0,40468480;-0,08209479
0,40484864;-0,08209479
0,40501248;-0,08209479
0,40517632;-0,08209479
0,40534016;-0,08209479
0,40550400;-0,08209479
0,40566784;-0,08209479
0,40583168;0,00762963
0,40599552;0,00762963
0,40615936;0,00762963
0,40632320;0,00762963
0,40648704;0,00762963
0,40665088;0,00762963
0,40681472;0,00762963
0,40697856;0,00762963
0,40714240;0,00762963
0,40730624;0,09735405
0,40747008;0,27680290
0,40763392;0,63600580
0,40779776;0,99520860
0,40796160;1,35441100
0,40812544;1,80333900
0,40828928;2,25257100
0,40845312;2,70149900
0,40861696;3,24015000
0,40878080;3,68938300
0,40894464;4,13831000
0,40910848;4,58723700
0,40927232;5,03616400
0,40943616;5,39536700
0,40960000;5,57512100
0,40976384;5,66484600
0,40992768;5,66484600
0,41009152;5,75457000
0,41025536;5,75457000
0,41041920;5,75457000
0,41058304;5,75457000
0,41074688;5,75457000
0,41091072;5,66484600
0,41107456;5,75457000
0,41123840;5,75457000
0,41140224;5,75457000
0,41156608;5,75457000
0,41172992;5,75457000
0,41189376;5,75457000
0,41205760;5,75457000
0,41222144;5,75457000
0,41238528;5,75457000
0,41254912;5,75457000
0,41271296;5,75457000
0,41287680;5,75457000
0,41304064;5,75457000
0,41320448;5,75457000
0,41336832;5,75457000
0,41353216;5,66484600
0,41369600;5,66484600
0,41385984;5,75457000
0,41402368;5,75457000
0,41418752;5,75457000
0,41435136;5,66484600
0,41451520;5,75457000
0,41467904;5,75457000
0,41484288;5,75457000
0,41500672;5,75457000
0,41517056;5,66484600
0,41533440;5,75457000
0,41549824;5,75457000
0,41566208;5,75457000
0,41582592;5,75457000
0,41598976;5,75457000
0,41615360;5,75457000
0,41631744;5,75457000
0,41648128;5,66484600
0,41664512;5,75457000
0,41680896;5,75457000
0,41697280;5,66484600
0,41713664;5,75457000
0,41730048;5,75457000
0,41746432;5,66484600
0,41762816;5,75457000
0,41779200;5,75457000
0,41795584;5,75457000
0,41811968;5,66484600
0,41828352;5,75457000
0,41844736;5,75457000
0,41861120;5,75457000
0,41877504;5,75457000
0,41893888;5,66484600
0,41910272;5,66484600
0,41926656;5,75457000
0,41943040;5,75457000
0,41959424;5,75457000
0,41975808;5,75457000
0,41992192;5,75457000
0,42008576;5,75457000
0,42024960;5,75457000
0,42041344;5,75457000
0,42057728;5,75457000
0,42074112;5,75457000
0,42090496;5,75457000
0,42106880;5,66484600
0,42123264;5,57512100
0,42139648;5,39536700
0,42156032;5,12619400
0,42172416;4,85671600
0,42188800;4,49751300
0,42205184;4,22803400
0,42221568;3,86883100
0,42237952;3,59935300
0,42254336;3,24015000
0,42270720;2,88094700
0,42287104;2,52174400
0,42303488;2,25257100
0,42319872;1,89336800
0,42336256;1,44413600
0,42352640;1,17496300
0,42369024;0,81575980
0,42385408;0,54628130
0,42401792;0,27680290
0,42418176;0,18707850
0,42434560;0,09735405
0,42450944;0,00762963
0,42467328;0,00762963
0,42483712;0,00762963
0,42500096;0,00762963
0,42516480;0,00762963
0,42532864;0,00762963
0,42549248;0,00762963
0,42565632;0,00762963
0,42582016;0,00762963
0,42598400;0,00762963
0,42614784;0,00762963
0,42631168;0,00762963
0,42647552;0,00762963
0,42663936;0,00762963
0,42680320;0,00762963
0,42696704;0,00762963
0,42713088;0,00762963
0,42729472;0,00762963
0,42745856;0,00762963
0,42762240;0,00762963
0,42778624;0,00762963
0,42795008;-0,08209479
0,42811392;0,00762963
0,42827776;-0,08209479
0,42844160;0,00762963
0,42860544;0,00762963
0,42876928;0,00762963
0,42893312;0,00762963
0,42909696;0,00762963
0,42926080;0,00762963
0,42942464;0,00762963
0,42958848;0,00762963
0,42975232;-0,08209479
0,42991616;0,00762963
0,43008000;0,09735405
0,43024384;0,00762963
0,43040768;0,00762963
0,43057152;0,00762963
0,43073536;0,00762963
0,43089920;0,00762963
0,43106304;0,00762963
0,43122688;0,00762963
0,43139072;0,00762963
0,43155456;0,00762963
0,43171840;0,00762963
0,43188224;0,00762963
0,43204608;0,00762963
0,43220992;0,00762963
0,43237376;0,00762963
0,43253760;0,00762963
0,43270144;0,00762963
0,43286528;0,00762963
0,43302912;0,00762963
0,43319296;0,00762963
0,43335680;0,00762963
0,43352064;0,00762963
0,43368448;0,00762963
0,43384832;0,00762963
0,43401216;0,00762963
0,43417600;0,00762963
0,43433984;0,00762963
0,43450368;0,00762963
0,43466752;0,00762963
0,43483136;0,00762963
0,43499520;0,00762963
0,43515904;-0,08209479
0,43532288;0,00762963
0,43548672;-0,08209479
0,43565056;0,00762963
0,43581440;-0,08209479
0,43597824;0,00762963
0,43614208;-0,08209479
0,43630592;-0,08209479
0,43646976;-0,08209479
0,43663360;-0,08209479
0,43679744;-0,08209479
0,43696128;-0,08209479
0,43712512;-0,08209479
0,43728896;-0,08209479
0,43745280;-0,08209479
0,43761664;-0,08209479
0,43778048;-0,08209479
0,43794432;-0,08209479
0,43810816;-0,08209479
0,43827200;-0,08209479
0,43843584;-0,08209479
0,43859968;-0,08209479
0,43876352;-0,08209479
0,43892736;-0,08209479
0,43909120;-0,08209479
0,43925504;-0,17181920
0,43941888;-0,08209479
0,43958272;-0,08209479
0,43974656;-0,08209479
0,43991040;-0,08209479
0,44007424;-0,08209479
0,44023808;-0,08209479
0,44040192;-0,08209479
0,44056576;0,00762963
0,44072960;0,00762963
0,44089344;0,00762963
0,44105728;0,00762963
0,44122112;0,00762963
0,44138496;0,00762963
0,44154880;0,00762963
0,44171264;0,00762963
0,44187648;0,09735405
0,44204032;0,36652730
0,44220416;0,72573020
0,44236800;1,08493300
0,44253184;1,53416600
0,44269568;1,98309300
0,44285952;2,43202000
0,44302336;2,88094700
0,44318720;3,41990400
0,44335104;3,77910700
0,44351488;4,31775900
0,44367872;4,76699100
0,44384256;5,12619400
0,44400640;5,39536700
0,44417024;5,57512100
0,44433408;5,66484600
0,44449792;5,66484600
0,44466176;5,75457000
0,44482560;5,66484600
0,44498944;5,75457000
0,44515328;5,75457000
0,44531712;5,75457000
0,44548096;5,75457000
0,44564480;5,75457000
0,44580864;5,66484600
0,44597248;5,75457000
0,44613632;5,75457000
0,44630016;5,75457000
0,44646400;5,75457000
0,44662784;5,75457000
0,44679168;5,75457000
0,44695552;5,75457000
0,44711936;5,75457000
0,44728320;5,75457000
0,44744704;5,75457000
0,44761088;5,75457000
0,44777472;5,75457000
0,44793856;5,75457000
0,44810240;5,66484600
0,44826624;5,75457000
0,44843008;5,75457000
0,44859392;5,75457000
0,44875776;5,75457000
0,44892160;5,75457000
0,44908544;5,75457000
0,44924928;5,75457000
0,44941312;5,75457000
0,44957696;5,75457000
0,44974080;5,75457000
0,44990464;5,75457000
0,45006848;5,75457000
0,45023232;5,75457000
0,45039616;5,75457000
0,45056000;5,75457000
0,45072384;5,75457000
0,45088768;5,75457000
0,45105152;5,66484600
0,45121536;5,75457000
0,45137920;5,66484600
0,45154304;5,75457000
0,45170688;5,75457000
0,45187072;5,75457000
0,45203456;5,75457000
0,45219840;5,75457000
0,45236224;5,75457000
0,45252608;5,66484600
0,45268992;5,75457000
0,45285376;5,75457000
0,45301760;5,75457000
0,45318144;5,66484600
0,45334528;5,66484600
0,45350912;5,75457000
0,45367296;5,75457000
0,45383680;5,75457000
0,45400064;5,66484600
0,45416448;5,75457000
0,45432832;5,66484600
0,45449216;5,75457000
0,45465600;5,66484600
0,45481984;5,75457000
0,45498368;5,75457000
0,45514752;5,66484600
0,45531136;5,66484600
0,45547520;5,66484600
0,45563904;5,57512100
0,45580288;5,48539700
0,45596672;5,21591900
0,45613056;4,94644000
0,45629440;4,58723700
0,45645824;4,31775900
0,45662208;3,95855600
0,45678592;3,68938300
0,45694976;3,33018000
0,45711360;3,06070100
0,45727744;2,70149900
0,45744128;2,34229600
0,45760512;1,98309300
0,45776896;1,62389000
0,45793280;1,26468700
0,45809664;0,90548420
0,45826048;0,54628130
0,45842432;0,36652730
0,45858816;0,18707850
0,45875200;0,18707850
0,45891584;0,09735405
0,45907968;0,00762963
0,45924352;0,00762963
0,45940736;0,00762963
0,45957120;0,00762963
0,45973504;0,00762963
0,45989888;0,00762963
0,46006272;0,00762963
0,46022656;0,00762963
0,46039040;0,00762963
0,46055424;-0,08209479
0,46071808;0,00762963
0,46088192;0,00762963
0,46104576;0,00762963
0,46120960;0,00762963
0,46137344;0,00762963
0,46153728;0,00762963
0,46170112;0,00762963
0,46186496;0,00762963
0,46202880;0,00762963
0,46219264;0,00762963
0,46235648;0,00762963
0,46252032;0,00762963
0,46268416;0,00762963
0,46284800;0,00762963
0,46301184;0,00762963
0,46317568;0,00762963
0,46333952;-0,08209479
0,46350336;0,00762963
0,46366720;-0,08209479
0,46383104;0,00762963
0,46399488;-0,08209479
0,46415872;0,00762963
0,46432256;0,00762963
0,46448640;0,00762963
0,46465024;-0,08209479
0,46481408;0,00762963
0,46497792;0,00762963
0,46514176;0,00762963
0,46530560;0,00762963
0,46546944;0,00762963
0,46563328;0,00762963
0,46579712;0,09735405
0,46596096;0,00762963
0,46612480;0,00762963
0,46628864;0,00762963
0,46645248;0,09735405
0,46661632;0,00762963
0,46678016;0,00762963
0,46694400;0,00762963
0,46710784;0,00762963
0,46727168;0,00762963
0,46743552;0,00762963
0,46759936;0,00762963
0,46776320;0,00762963
0,46792704;0,00762963
0,46809088;0,00762963
0,46825472;0,00762963
0,46841856;0,00762963
0,46858240;0,00762963
0,46874624;0,00762963
0,46891008;0,00762963
0,46907392;0,00762963
0,46923776;0,00762963
0,46940160;0,00762963
0,46956544;0,00762963
0,46972928;0,00762963
0,46989312;0,00762963
0,47005696;0,00762963
0,47022080;0,00762963
0,47038464;0,00762963
0,47054848;-0,08209479
0,47071232;0,00762963
0,47087616;-0,08209479
0,47104000;-0,08209479
0,47120384;-0,08209479
0,47136768;-0,08209479
0,47153152;-0,08209479
0,47169536;-0,08209479
0,47185920;-0,08209479
0,47202304;-0,08209479
0,47218688;-0,08209479
0,47235072;-0,08209479
0,47251456;-0,08209479
0,47267840;-0,08209479
0,47284224;-0,08209479
0,47300608;-0,08209479
0,47316992;-0,08209479
0,47333376;-0,08209479
0,47349760;-0,08209479
0,47366144;-0,08209479
0,47382528;-0,08209479
0,47398912;-0,08209479
0,47415296;-0,08209479
0,47431680;-0,08209479
0,47448064;-0,08209479
0,47464448;-0,08209479
0,47480832;-0,08209479
0,47497216;-0,08209479
0,47513600;-0,08209479
0,47529984;-0,08209479
0,47546368;-0,08209479
0,47562752;0,00762963
0,47579136;0,00762963
0,47595520;0,00762963
0,47611904;0,00762963
0,47628288;0,00762963
0,47644672;0,00762963
0,47661056;0,00762963
0,47677440;0,00762963
0,47693824;0,18707850
0,47710208;0,45655690
0,47726592;0,81575980
0,47742976;1,17496300
0,47759360;1,62389000
0,47775744;2,07281700
0,47792128;2,52174400
0,47808512;3,06070100
0,47824896;3,50962900
0,47841280;3,95855600
0,47857664;4,40778800
0,47874048;4,85671600
0,47890432;5,30564300
0,47906816;5,48539700
0,47923200;5,57512100
0,47939584;5,66484600
0,47955968;5,66484600
0,47972352;5,75457000
0,47988736;5,75457000
0,48005120;5,75457000
0,48021504;5,75457000
0,48037888;5,75457000
0,48054272;5,75457000
0,48070656;5,66484600
0,48087040;5,75457000
0,48103424;5,75457000
0,48119808;5,75457000
0,48136192;5,75457000
0,48152576;5,75457000
0,48168960;5,75457000
0,48185344;5,66484600
0,48201728;5,75457000
0,48218112;5,75457000
0,48234496;5,75457000
0,48250880;5,75457000
0,48267264;5,75457000
0,48283648;5,75457000
0,48300032;5,75457000
0,48316416;5,75457000
0,48332800;5,75457000
0,48349184;5,75457000
0,48365568;5,75457000
0,48381952;5,75457000
0,48398336;5,75457000
0,48414720;5,75457000
0,48431104;5,75457000
0,48447488;5,75457000
0,48463872;5,75457000
0,48480256;5,75457000
0,48496640;5,75457000
0,48513024;5,75457000
0,48529408;5,75457000
0,48545792;5,75457000
0,48562176;5,75457000
0,48578560;5,75457000
0,48594944;5,66484600
0,48611328;5,75457000
0,48627712;5,66484600
0,48644096;5,75457000
0,48660480;5,75457000
0,48676864;5,75457000
0,48693248;5,75457000
0,48709632;5,75457000
0,48726016;5,75457000
0,48742400;5,75457000
0,48758784;5,75457000
0,48775168;5,66484600
0,48791552;5,75457000
0,48807936;5,75457000
0,48824320;5,75457000
0,48840704;5,66484600
0,48857088;5,75457000
0,48873472;5,75457000
0,48889856;5,66484600
0,48906240;5,66484600
0,48922624;5,75457000
0,48939008;5,75457000
0,48955392;5,75457000
0,48971776;5,75457000
0,48988160;5,75457000
0,49004544;5,66484600
0,49020928;5,75457000
0,49037312;5,66484600
0,49053696;5,66484600
0,49070080;5,57512100
0,49086464;5,39536700
0,49102848;5,12619400
0,49119232;4,85671600
0,49135616;4,49751300
0,49152000;4,13831000
0,49168384;3,86883100
0,49184768;3,50962900
0,49201152;3,15042600
0,49217536;2,88094700
0,49233920;2,52174400
0,49250304;2,16254200
0,49266688;1,80333900
0,49283072;1,44413600
0,49299456;0,99520860
0,49315840;0,72573020
0,49332224;0,45655690
0,49348608;0,27680290
0,49364992;0,18707850
0,49381376;0,09735405
0,49397760;0,00762963
0,49414144;0,00762963
0,49430528;0,00762963
0,49446912;0,00762963
0,49463296;0,00762963
0,49479680;0,00762963
0,49496064;0,00762963
0,49512448;0,00762963
0,49528832;0,00762963
0,49545216;0,00762963
0,49561600;-0,08209479
0,49577984;0,00762963
0,49594368;0,00762963
0,49610752;0,00762963
0,49627136;0,00762963
0,49643520;0,00762963
0,49659904;0,00762963
0,49676288;0,00762963
0,49692672;0,00762963
0,49709056;0,00762963
0,49725440;0,00762963
0,49741824;0,00762963
0,49758208;0,00762963
0,49774592;-0,08209479
0,49790976;0,00762963
0,49807360;0,00762963
0,49823744;0,00762963
0,49840128;0,00762963
0,49856512;0,00762963
0,49872896;0,00762963
0,49889280;0,00762963
0,49905664;0,00762963
0,49922048;0,09735405
0,49938432;0,09735405
0,49954816;0,00762963
0,49971200;0,09735405
0,49987584;0,09735405
0,50003968;0,09735405
0,50020352;0,00762963
0,50036736;0,00762963
0,50053120;0,09735405
0,50069504;0,09735405
0,50085888;0,00762963
0,50102272;0,00762963
0,50118656;0,00762963
0,50135040;0,00762963
0,50151424;0,00762963
0,50167808;0,00762963
0,50184192;0,00762963
0,50200576;0,00762963
0,50216960;0,00762963
0,50233344;0,00762963
0,50249728;0,00762963
0,50266112;0,00762963
0,50282496;0,00762963
0,50298880;0,00762963
0,50315264;0,00762963
0,50331648;0,00762963
0,50348032;0,00762963
0,50364416;0,00762963
0,50380800;0,00762963
0,50397184;0,00762963
0,50413568;0,00762963
0,50429952;0,00762963
0,50446336;0,00762963
0,50462720;0,00762963
0,50479104;-0,08209479
0,50495488;0,00762963
0,50511872;-0,08209479
0,50528256;-0,08209479
0,50544640;-0,08209479
0,50561024;-0,08209479
0,50577408;-0,08209479
0,50593792;-0,08209479
0,50610176;-0,08209479
0,50626560;-0,08209479
0,50642944;-0,08209479
0,50659328;-0,08209479
0,50675712;-0,08209479
0,50692096;-0,08209479
0,50708480;-0,08209479
0,50724864;-0,08209479
0,50741248;-0,08209479
0,50757632;-0,08209479
0,50774016;-0,08209479
0,50790400;-0,08209479
0,50806784;-0,08209479
0,50823168;-0,08209479
0,50839552;-0,08209479
0,50855936;-0,08209479
0,50872320;-0,08209479
0,50888704;-0,08209479
0,50905088;0,00762963
0,50921472;0,00762963
0,50937856;0,00762963
0,50954240;0,00762963
0,50970624;0,00762963
0,50987008;-0,08209479
0,51003392;0,00762963
0,51019776;0,00762963
0,51036160;0,00762963
0,51052544;0,18707850
0,51068928;0,36652730
0,51085312;0,72573020
0,51101696;1,17496300
0,51118080;1,62389000
0,51134464;1,98309300
0,51150848;2,52174400
0,51167232;2,97097700
0,51183616;3,41990400
0,51200000;3,86883100
0,51216384;4,31775900
0,51232768;4,76699100
0,51249152;5,21591900
0,51265536;5,39536700
0,51281920;5,57512100
0,51298304;5,57512100
0,51314688;5,66484600
0,51331072;5,75457000
0,51347456;5,66484600
0,51363840;5,66484600
0,51380224;5,75457000
0,51396608;5,75457000
0,51412992;5,66484600
0,51429376;5,75457000
0,51445760;5,75457000
0,51462144;5,75457000
0,51478528;5,66484600
0,51494912;5,66484600
0,51511296;5,75457000
0,51527680;5,75457000
0,51544064;5,75457000
0,51560448;5,75457000
0,51576832;5,75457000
0,51593216;5,75457000
0,51609600;5,75457000
0,51625984;5,75457000
0,51642368;5,75457000
0,51658752;5,75457000
0,51675136;5,75457000
0,51691520;5,66484600
0,51707904;5,75457000
0,51724288;5,75457000
0,51740672;5,75457000
0,51757056;5,66484600
0,51773440;5,75457000
0,51789824;5,75457000
0,51806208;5,75457000
0,51822592;5,75457000
0,51838976;5,75457000
0,51855360;5,75457000
0,51871744;5,75457000
0,51888128;5,75457000
0,51904512;5,66484600
0,51920896;5,75457000
0,51937280;5,75457000
0,51953664;5,75457000
0,51970048;5,75457000
0,51986432;5,75457000
0,52002816;5,75457000
0,52019200;5,75457000
0,52035584;5,75457000
0,52051968;5,66484600
0,52068352;5,75457000
0,52084736;5,75457000
0,52101120;5,75457000
0,52117504;5,66484600
0,52133888;5,75457000
0,52150272;5,75457000
0,52166656;5,66484600
0,52183040;5,75457000
0,52199424;5,75457000
0,52215808;5,66484600
0,52232192;5,75457000
0,52248576;5,75457000
0,52264960;5,75457000
0,52281344;5,66484600
0,52297728;5,75457000
0,52314112;5,75457000
0,52330496;5,75457000
0,52346880;5,75457000
0,52363264;5,66484600
0,52379648;5,75457000
0,52396032;5,75457000
0,52412416;5,66484600
0,52428800;5,66484600
0,52445184;5,48539700
0,52461568;5,30564300
0,52477952;4,94644000
0,52494336;4,67696100
0,52510720;4,40778800
0,52527104;4,04858500
0,52543488;3,77910700
0,52559872;3,41990400
0,52576256;3,06070100
0,52592640;2,79122300
0,52609024;2,43202000
0,52625408;2,07281700
0,52641792;1,71361400
0,52658176;1,35441100
0,52674560;0,99520860
0,52690944;0,63600580
0,52707328;0,36652730
0,52723712;0,27680290
0,52740096;0,09735405
0,52756480;0,09735405
0,52772864;0,00762963
0,52789248;0,00762963
0,52805632;0,00762963
0,52822016;0,00762963
0,52838400;0,00762963
0,52854784;0,00762963
0,52871168;0,00762963
0,52887552;-0,08209479
0,52903936;0,00762963
0,52920320;0,00762963
0,52936704;0,00762963
0,52953088;0,00762963
0,52969472;0,00762963
0,52985856;0,00762963
0,53002240;0,00762963
0,53018624;-0,08209479
0,53035008;0,00762963
0,53051392;0,00762963
0,53067776;0,00762963
0,53084160;0,00762963
0,53100544;0,00762963
0,53116928;0,00762963
0,53133312;0,00762963
0,53149696;0,00762963
0,53166080;0,00762963
0,53182464;0,00762963
0,53198848;0,00762963
0,53215232;0,00762963
0,53231616;-0,08209479
0,53248000;0,00762963
0,53264384;0,00762963
0,53280768;0,00762963
0,53297152;0,00762963
0,53313536;0,00762963
0,53329920;0,00762963
0,53346304;0,09735405
0,53362688;0,00762963
0,53379072;0,00762963
0,53395456;0,09735405
0,53411840;0,09735405
0,53428224;0,00762963
0,53444608;0,00762963
0,53460992;0,00762963
0,53477376;0,09735405
0,53493760;0,09735405
0,53510144;0,09735405
0,53526528;0,00762963
0,53542912;0,00762963
0,53559296;0,00762963
0,53575680;0,00762963
0,53592064;0,00762963
0,53608448;0,00762963
0,53624832;0,00762963
0,53641216;0,00762963
0,53657600;0,00762963
0,53673984;0,00762963
0,53690368;0,00762963
0,53706752;0,00762963
0,53723136;0,00762963
0,53739520;0,00762963
0,53755904;0,00762963
0,53772288;0,00762963
0,53788672;-0,08209479
0,53805056;0,00762963
0,53821440;0,00762963
0,53837824;-0,08209479
0,53854208;-0,08209479
0,53870592;-0,08209479
0,53886976;0,00762963
0,53903360;-0,08209479
0,53919744;-0,08209479
0,53936128;-0,08209479
0,53952512;-0,08209479
0,53968896;-0,08209479
0,53985280;-0,08209479
0,54001664;-0,08209479
0,54018048;-0,08209479
0,54034432;-0,08209479
0,54050816;-0,08209479
0,54067200;-0,08209479
0,54083584;-0,08209479
0,54099968;-0,08209479
0,54116352;-0,08209479
0,54132736;-0,17181920
0,54149120;-0,08209479
0,54165504;-0,08209479
0,54181888;-0,08209479
0,54198272;-0,17181920
0,54214656;-0,08209479
0,54231040;-0,08209479
0,54247424;-0,08209479
0,54263808;-0,17181920
0,54280192;-0,08209479
0,54296576;-0,08209479
0,54312960;-0,08209479
0,54329344;-0,08209479
0,54345728;-0,08209479
0,54362112;-0,08209479
0,54378496;0,00762963
0,54394880;0,00762963
0,54411264;0,00762963
0,54427648;0,00762963
0,54444032;0,00762963
0,54460416;0,00762963
0,54476800;0,00762963
0,54493184;0,09735405
0,54509568;0,27680290
0,54525952;0,63600580
0,54542336;0,90548420
0,54558720;1,35441100
0,54575104;1,80333900
0,54591488;2,25257100
0,54607872;2,79122300
0,54624256;3,24015000
0,54640640;3,68938300
0,54657024;4,13831000
0,54673408;4,58723700
0,54689792;4,94644000
0,54706176;5,30564300
0,54722560;5,48539700
0,54738944;5,66484600
0,54755328;5,66484600
0,54771712;5,66484600
0,54788096;5,75457000
0,54804480;5,75457000
0,54820864;5,75457000
0,54837248;5,75457000
0,54853632;5,75457000
0,54870016;5,75457000
0,54886400;5,75457000
0,54902784;5,75457000
0,54919168;5,75457000
0,54935552;5,75457000
0,54951936;5,75457000
0,54968320;5,75457000
0,54984704;5,75457000
0,55001088;5,75457000
0,55017472;5,75457000
0,55033856;5,75457000
0,55050240;5,75457000
0,55066624;5,75457000
0,55083008;5,75457000
0,55099392;5,75457000
0,55115776;5,75457000
0,55132160;5,75457000
0,55148544;5,75457000
0,55164928;5,75457000
0,55181312;5,75457000
0,55197696;5,75457000
0,55214080;5,75457000
0,55230464;5,75457000
0,55246848;5,75457000
0,55263232;5,75457000
0,55279616;5,75457000
0,55296000;5,75457000
0,55312384;5,66484600
0,55328768;5,75457000
0,55345152;5,75457000
0,55361536;5,75457000
0,55377920;5,66484600
0,55394304;5,75457000
0,55410688;5,66484600
0,55427072;5,75457000
0,55443456;5,75457000
0,55459840;5,75457000
0,55476224;5,66484600
0,55492608;5,75457000
0,55508992;5,75457000
0,55525376;5,75457000
0,55541760;5,66484600
0,55558144;5,75457000
0,55574528;5,66484600
0,55590912;5,75457000
0,55607296;5,75457000
0,55623680;5,75457000
0,55640064;5,75457000
0,55656448;5,75457000
0,55672832;5,75457000
0,55689216;5,75457000
0,55705600;5,66484600
0,55721984;5,66484600
0,55738368;5,66484600
0,55754752;5,75457000
0,55771136;5,66484600
0,55787520;5,75457000
0,55803904;5,75457000
0,55820288;5,75457000
0,55836672;5,75457000
0,55853056;5,66484600
0,55869440;5,66484600
0,55885824;5,48539700
0,55902208;5,39536700
0,55918592;5,12619400
0,55934976;4,76699100
0,55951360;4,49751300
0,55967744;4,13831000
0,55984128;3,86883100
0,56000512;3,50962900
0,56016896;3,15042600
0,56033280;2,88094700
0,56049664;2,52174400
0,56066048;2,16254200
0,56082432;1,80333900
0,56098816;1,44413600
0,56115200;1,08493300
0,56131584;0,81575980
0,56147968;0,45655690
0,56164352;0,27680290
0,56180736;0,18707850
0,56197120;0,09735405
0,56213504;0,09735405
0,56229888;0,00762963
0,56246272;0,00762963
0,56262656;0,00762963
0,56279040;0,00762963
0,56295424;0,00762963
0,56311808;0,00762963
0,56328192;0,00762963
0,56344576;0,00762963
0,56360960;0,00762963
0,56377344;0,00762963
0,56393728;0,00762963
0,56410112;0,00762963
0,56426496;0,00762963
0,56442880;0,00762963
0,56459264;0,00762963
0,56475648;0,00762963
0,56492032;0,00762963
0,56508416;0,00762963
0,56524800;0,00762963
0,56541184;0,00762963
0,56557568;0,00762963
0,56573952;0,00762963
0,56590336;0,00762963
0,56606720;0,00762963
0,56623104;0,00762963
0,56639488;0,00762963
0,56655872;0,00762963
0,56672256;0,00762963
0,56688640;0,00762963
0,56705024;0,00762963
0,56721408;0,00762963
0,56737792;0,00762963
0,56754176;0,00762963
0,56770560;0,00762963
0,56786944;0,00762963
0,56803328;0,00762963
0,56819712;0,09735405
0,56836096;0,09735405
0,56852480;0,00762963
0,56868864;0,09735405
0,56885248;0,09735405
0,56901632;0,09735405
0,56918016;0,00762963
0,56934400;0,00762963
0,56950784;0,00762963
0,56967168;0,00762963
0,56983552;0,09735405
0,56999936;0,09735405
0,57016320;0,00762963
0,57032704;0,00762963
0,57049088;0,00762963
0,57065472;0,00762963
0,57081856;0,09735405
0,57098240;0,00762963
0,57114624;0,00762963
0,57131008;0,00762963
0,57147392;0,00762963
0,57163776;0,00762963
0,57180160;0,00762963
0,57196544;0,00762963
0,57212928;0,00762963
0,57229312;0,00762963
0,57245696;0,00762963
0,57262080;0,00762963
0,57278464;0,00762963
0,57294848;-0,08209479
0,57311232;-0,08209479
0,57327616;-0,08209479
0,57344000;0,00762963
0,57360384;-0,08209479
0,57376768;-0,08209479
0,57393152;-0,08209479
0,57409536;-0,08209479
0,57425920;-0,08209479
0,57442304;-0,08209479
0,57458688;-0,08209479
0,57475072;-0,08209479
0,57491456;-0,08209479
0,57507840;-0,08209479
0,57524224;-0,08209479
0,57540608;-0,08209479
0,57556992;-0,08209479
0,57573376;-0,08209479
0,57589760;-0,08209479
0,57606144;-0,08209479
0,57622528;-0,08209479
0,57638912;-0,08209479
0,57655296;-0,08209479
0,57671680;-0,08209479
0,57688064;-0,08209479
0,57704448;-0,08209479
0,57720832;-0,08209479
0,57737216;-0,08209479
0,57753600;-0,08209479
0,57769984;-0,08209479
0,57786368;-0,08209479
0,57802752;-0,08209479
0,57819136;-0,08209479
0,57835520;-0,08209479
0,57851904;-0,08209479
0,57868288;0,00762963
0,57884672;-0,08209479
0,57901056;0,00762963
0,57917440;0,00762963
0,57933824;0,00762963
0,57950208;0,00762963
0,57966592;0,00762963
0,57982976;0,00762963
0,57999360;0,09735405
0,58015744;0,36652730
0,58032128;0,72573020
0,58048512;1,08493300
0,58064896;1,53416600
0,58081280;1,98309300
0,58097664;2,43202000
0,58114048;2,88094700
0,58130432;3,41990400
0,58146816;3,86883100
0,58163200;4,31775900
0,58179584;4,76699100
0,58195968;5,21591900
0,58212352;5,39536700
0,58228736;5,57512100
0,58245120;5,66484600
0,58261504;5,66484600
0,58277888;5,66484600
0,58294272;5,75457000
0,58310656;5,75457000
0,58327040;5,75457000
0,58343424;5,75457000
0,58359808;5,75457000
0,58376192;5,75457000
0,58392576;5,75457000
0,58408960;5,75457000
0,58425344;5,75457000
0,58441728;5,75457000
0,58458112;5,75457000
0,58474496;5,75457000
0,58490880;5,75457000
0,58507264;5,75457000
0,58523648;5,75457000
0,58540032;5,75457000
0,58556416;5,75457000
0,58572800;5,75457000
0,58589184;5,75457000
0,58605568;5,75457000
0,58621952;5,66484600
0,58638336;5,75457000
0,58654720;5,66484600
0,58671104;5,66484600
0,58687488;5,75457000
0,58703872;5,75457000
0,58720256;5,66484600
0,58736640;5,75457000
0,58753024;5,75457000
0,58769408;5,75457000
0,58785792;5,75457000
0,58802176;5,75457000
0,58818560;5,75457000
0,58834944;5,75457000
0,58851328;5,75457000
0,58867712;5,75457000
0,58884096;5,75457000
0,58900480;5,75457000
0,58916864;5,75457000
0,58933248;5,75457000
0,58949632;5,75457000
0,58966016;5,75457000
0,58982400;5,75457000
0,58998784;5,66484600
0,59015168;5,66484600
0,59031552;5,75457000
0,59047936;5,75457000
0,59064320;5,75457000
0,59080704;5,75457000
0,59097088;5,66484600
0,59113472;5,75457000
0,59129856;5,75457000
0,59146240;5,75457000
0,59162624;5,75457000
0,59179008;5,75457000
0,59195392;5,75457000
0,59211776;5,75457000
0,59228160;5,75457000
0,59244544;5,75457000
0,59260928;5,75457000
0,59277312;5,75457000
0,59293696;5,75457000
0,59310080;5,75457000
0,59326464;5,75457000
0,59342848;5,66484600
0,59359232;5,66484600
0,59375616;5,57512100
0,59392000;5,39536700
0,59408384;5,21591900
0,59424768;4,85671600
0,59441152;4,58723700
0,59457536;4,31775900
0,59473920;3,95855600
0,59490304;3,68938300
0,59506688;3,33018000
0,59523072;2,97097700
0,59539456;2,61177400
0,59555840;2,34229600
0,59572224;1,89336800
0,59588608;1,62389000
0,59604992;1,26468700
0,59621376;0,81575980
0,59637760;0,54628130
0,59654144;0,27680290
0,59670528;0,18707850
0,59686912;0,18707850
0,59703296;0,09735405
0,59719680;0,00762963
0,59736064;0,00762963
0,59752448;0,00762963
0,59768832;0,00762963
0,59785216;0,00762963
0,59801600;0,00762963
0,59817984;0,00762963
0,59834368;0,00762963
0,59850752;0,00762963
0,59867136;0,00762963
0,59883520;0,00762963
0,59899904;0,00762963
0,59916288;0,00762963
0,59932672;0,00762963
0,59949056;0,00762963
0,59965440;0,00762963
0,59981824;-0,08209479
0,59998208;0,00762963
0,60014592;0,00762963
0,60030976;0,00762963
0,60047360;0,00762963
0,60063744;-0,08209479
0,60080128;0,00762963
0,60096512;0,00762963
0,60112896;0,00762963
0,60129280;0,00762963
0,60145664;0,00762963
0,60162048;0,00762963
0,60178432;0,00762963
0,60194816;0,00762963
0,60211200;0,09735405
0,60227584;0,09735405
0,60243968;0,09735405
0,60260352;0,00762963
0,60276736;0,00762963
0,60293120;0,09735405
0,60309504;0,09735405
0,60325888;0,00762963
0,60342272;0,00762963
0,60358656;0,00762963
0,60375040;0,00762963
0,60391424;0,00762963
0,60407808;0,00762963
0,60424192;0,00762963
0,60440576;0,00762963
0,60456960;0,00762963
0,60473344;0,00762963
0,60489728;0,09735405
0,60506112;0,00762963
0,60522496;0,00762963
0,60538880;0,00762963
0,60555264;0,00762963
0,60571648;-0,08209479
0,60588032;0,00762963
0,60604416;0,00762963
0,60620800;0,00762963
0,60637184;0,00762963
0,60653568;0,00762963
0,60669952;0,00762963
0,60686336;0,00762963
0,60702720;0,00762963
0,60719104;0,00762963
0,60735488;0,00762963
0,60751872;0,00762963
0,60768256;0,00762963
0,60784640;-0,08209479
0,60801024;-0,08209479
0,60817408;-0,08209479
0,60833792;-0,08209479
0,60850176;0,00762963
0,60866560;-0,08209479
0,60882944;0,00762963
0,60899328;-0,08209479
0,60915712;-0,08209479
0,60932096;-0,08209479
0,60948480;-0,08209479
0,60964864;-0,08209479
0,60981248;-0,08209479
0,60997632;-0,08209479
0,61014016;-0,08209479
0,61030400;-0,08209479
0,61046784;-0,08209479
0,61063168;-0,08209479
0,61079552;-0,08209479
0,61095936;-0,08209479
0,61112320;-0,08209479
0,61128704;-0,08209479
0,61145088;-0,08209479
0,61161472;-0,08209479
0,61177856;-0,08209479
0,61194240;-0,08209479
0,61210624;0,00762963
0,61227008;0,00762963
0,61243392;-0,08209479
0,61259776;0,00762963
0,61276160;0,00762963
0,61292544;0,00762963
0,61308928;0,00762963
0,61325312;0,00762963
0,61341696;0,00762963
0,61358080;0,09735405
0,61374464;0,36652730
0,61390848;0,72573020
0,61407232;1,08493300
0,61423616;1,53416600
0,61440000;1,98309300
0,61456384;2,43202000
0,61472768;2,88094700
0,61489152;3,41990400
0,61505536;3,77910700
0,61521920;4,31775900
0,61538304;4,76699100
0,61554688;5,12619400
0,61571072;5,39536700
0,61587456;5,57512100
0,61603840;5,66484600
0,61620224;5,66484600
0,61636608;5,66484600
0,61652992;5,75457000
0,61669376;5,75457000
0,61685760;5,75457000
0,61702144;5,75457000
0,61718528;5,75457000
0,61734912;5,75457000
0,61751296;5,75457000
0,61767680;5,75457000
0,61784064;5,75457000
0,61800448;5,75457000
0,61816832;5,75457000
0,61833216;5,75457000
0,61849600;5,75457000
0,61865984;5,75457000
0,61882368;5,75457000
0,61898752;5,75457000
0,61915136;5,75457000
0,61931520;5,75457000
0,61947904;5,75457000
0,61964288;5,75457000
0,61980672;5,75457000
0,61997056;5,75457000
0,62013440;5,75457000
0,62029824;5,75457000
0,62046208;5,75457000
0,62062592;5,75457000
0,62078976;5,75457000
0,62095360;5,75457000
0,62111744;5,75457000
0,62128128;5,66484600
0,62144512;5,75457000
0,62160896;5,75457000
0,62177280;5,75457000
0,62193664;5,75457000
0,62210048;5,75457000
0,62226432;5,75457000
0,62242816;5,75457000
0,62259200;5,75457000
0,62275584;5,75457000
0,62291968;5,66484600
0,62308352;5,75457000
0,62324736;5,66484600
0,62341120;5,75457000
0,62357504;5,75457000
0,62373888;5,75457000
0,62390272;5,75457000
0,62406656;5,75457000
0,62423040;5,75457000
0,62439424;5,75457000
0,62455808;5,66484600
0,62472192;5,66484600
0,62488576;5,66484600
0,62504960;5,75457000
0,62521344;5,75457000
0,62537728;5,75457000
0,62554112;5,75457000
0,62570496;5,75457000
0,62586880;5,75457000
0,62603264;5,75457000
0,62619648;5,75457000
0,62636032;5,75457000
0,62652416;5,75457000
0,62668800;5,75457000
0,62685184;5,75457000
0,62701568;5,66484600
0,62717952;5,66484600
0,62734336;5,57512100
0,62750720;5,48539700
0,62767104;5,30564300
0,62783488;4,94644000
0,62799872;4,67696100
0,62816256;4,40778800
0,62832640;4,13831000
0,62849024;3,77910700
0,62865408;3,41990400
0,62881792;3,15042600
0,62898176;2,79122300
0,62914560;2,43202000
0,62930944;2,07281700
0,62947328;1,71361400
0,62963712;1,35441100
0,62980096;0,99520860
0,62996480;0,72573020
0,63012864;0,45655690
0,63029248;0,27680290
0,63045632;0,18707850
0,63062016;0,09735405
0,63078400;0,00762963
0,63094784;0,00762963
0,63111168;0,00762963
0,63127552;0,00762963
0,63143936;0,00762963
0,63160320;0,00762963
0,63176704;0,00762963
0,63193088;0,00762963
0,63209472;0,00762963
0,63225856;0,00762963
0,63242240;0,00762963
0,63258624;0,00762963
0,63275008;0,00762963
0,63291392;0,00762963
0,63307776;0,00762963
0,63324160;0,00762963
0,63340544;0,00762963
0,63356928;0,00762963
0,63373312;0,00762963
0,63389696;0,00762963
0,63406080;0,00762963
0,63422464;0,00762963
0,63438848;0,00762963
0,63455232;0,00762963
0,63471616;0,00762963
0,63488000;0,00762963
0,63504384;0,00762963
0,63520768;0,00762963
0,63537152;0,00762963
0,63553536;0,00762963
0,63569920;0,00762963
0,63586304;0,00762963
0,63602688;0,00762963
0,63619072;0,00762963
0,63635456;0,09735405
0,63651840;0,09735405
0,63668224;0,00762963
0,63684608;0,09735405
0,63700992;0,09735405
0,63717376;0,09735405
0,63733760;0,00762963
0,63750144;0,00762963
0,63766528;0,00762963
0,63782912;0,00762963
0,63799296;0,00762963
0,63815680;0,00762963
0,63832064;0,00762963
0,63848448;0,00762963
0,63864832;0,00762963
0,63881216;0,00762963
0,63897600;0,00762963
0,63913984;0,00762963
0,63930368;0,00762963
0,63946752;0,00762963
0,63963136;0,00762963
0,63979520;0,00762963
0,63995904;0,00762963
0,64012288;0,00762963
0,64028672;-0,08209479
0,64045056;0,00762963
0,64061440;0,00762963
0,64077824;0,00762963
0,64094208;0,00762963
0,64110592;0,00762963
0,64126976;-0,08209479
0,64143360;0,00762963
0,64159744;-0,08209479
0,64176128;0,00762963
0,64192512;-0,08209479
0,64208896;0,00762963
0,64225280;-0,08209479
0,64241664;-0,08209479
0,64258048;-0,08209479
0,64274432;-0,08209479
0,64290816;-0,08209479
0,64307200;-0,08209479
0,64323584;-0,08209479
0,64339968;-0,08209479
0,64356352;-0,08209479
0,64372736;-0,08209479
0,64389120;-0,08209479
0,64405504;-0,08209479
0,64421888;-0,08209479
0,64438272;-0,08209479
0,64454656;-0,08209479
0,64471040;-0,08209479
0,64487424;-0,08209479
0,64503808;-0,08209479
0,64520192;-0,08209479
0,64536576;-0,08209479
0,64552960;-0,08209479
0,64569344;-0,08209479
0,64585728;-0,08209479
0,64602112;-0,08209479
0,64618496;-0,17181920
0,64634880;-0,08209479
0,64651264;-0,08209479
0,64667648;0,00762963
0,64684032;-0,08209479
0,64700416;0,00762963
0,64716800;0,00762963
0,64733184;0,00762963
0,64749568;0,00762963
0,64765952;0,00762963
0,64782336;0,00762963
0,64798720;0,09735405
0,64815104;0,27680290
0,64831488;0,54628130
0,64847872;0,90548420
0,64864256;1,35441100
0,64880640;1,80333900
0,64897024;2,25257100
0,64913408;2,70149900
0,64929792;3,15042600
0,64946176;3,59935300
0,64962560;4,13831000
0,64978944;4,58723700
0,64995328;4,94644000
0,65011712;5,30564300
0,65028096;5,57512100
0,65044480;5,57512100
0,65060864;5,66484600
0,65077248;5,75457000
0,65093632;5,66484600
0,65110016;5,75457000
0,65126400;5,75457000
0,65142784;5,75457000
0,65159168;5,75457000
0,65175552;5,75457000
0,65191936;5,75457000
0,65208320;5,75457000
0,65224704;5,75457000
0,65241088;5,75457000
0,65257472;5,75457000
0,65273856;5,75457000
0,65290240;5,75457000
0,65306624;5,75457000
0,65323008;5,75457000
0,65339392;5,75457000
0,65355776;5,75457000
0,65372160;5,75457000
0,65388544;5,66484600
0,65404928;5,75457000
0,65421312;5,75457000
0,65437696;5,75457000
0,65454080;5,75457000
0,65470464;5,75457000
0,65486848;5,66484600
0,65503232;5,75457000
0,65519616;5,66484600
0,65536000;5,75457000
0,65552384;5,75457000
0,65568768;5,75457000
0,65585152;5,75457000
0,65601536;5,75457000
0,65617920;5,75457000
0,65634304;5,75457000
0,65650688;5,75457000
0,65667072;5,75457000
0,65683456;5,66484600
0,65699840;5,75457000
0,65716224;5,75457000
0,65732608;5,75457000
0,65748992;5,75457000
0,65765376;5,75457000
0,65781760;5,75457000
0,65798144;5,75457000
0,65814528;5,75457000
0,65830912;5,75457000
0,65847296;5,66484600
0,65863680;5,75457000
0,65880064;5,66484600
0,65896448;5,75457000
0,65912832;5,75457000
0,65929216;5,75457000
0,65945600;5,66484600
0,65961984;5,75457000
0,65978368;5,75457000
0,65994752;5,66484600
0,66011136;5,75457000
0,66027520;5,75457000
0,66043904;5,75457000
0,66060288;5,75457000
0,66076672;5,75457000
0,66093056;5,75457000
0,66109440;5,75457000
0,66125824;5,75457000
0,66142208;5,75457000
0,66158592;5,75457000
0,66174976;5,66484600
0,66191360;5,57512100
0,66207744;5,30564300
0,66224128;5,03616400
0,66240512;4,76699100
0,66256896;4,49751300
0,66273280;4,13831000
0,66289664;3,86883100
0,66306048;3,50962900
0,66322432;3,15042600
0,66338816;2,88094700
0,66355200;2,52174400
0,66371584;2,16254200
0,66387968;1,80333900
0,66404352;1,44413600
0,66420736;1,08493300
0,66437120;0,72573020
0,66453504;0,45655690
0,66469888;0,27680290
0,66486272;0,18707850
0,66502656;0,09735405
0,66519040;0,00762963
0,66535424;0,00762963
0,66551808;0,00762963
0,66568192;0,00762963
0,66584576;0,00762963
0,66600960;0,00762963
0,66617344;0,00762963
0,66633728;0,00762963
0,66650112;0,00762963
0,66666496;0,00762963
0,66682880;0,00762963
0,66699264;0,00762963
0,66715648;0,00762963
0,66732032;0,00762963
0,66748416;0,00762963
0,66764800;0,00762963
0,66781184;0,00762963
0,66797568;0,00762963
0,66813952;0,00762963
0,66830336;0,00762963
0,66846720;0,00762963
0,66863104;0,00762963
0,66879488;0,00762963
0,66895872;0,00762963
0,66912256;0,00762963
0,66928640;0,00762963
0,66945024;0,00762963
0,66961408;0,00762963
0,66977792;0,00762963
0,66994176;0,00762963
0,67010560;0,00762963
0,67026944;0,00762963
0,67043328;0,00762963
0,67059712;0,00762963
0,67076096;0,00762963
0,67092480;0,00762963
0,67108864;0,00762963
0,67125248;0,09735405
0,67141632;0,09735405
0,67158016;0,09735405
0,67174400;0,09735405
0,67190784;0,09735405
0,67207168;0,00762963
0,67223552;0,09735405
0,67239936;0,00762963
0,67256320;0,00762963
0,67272704;0,09735405
0,67289088;0,09735405
0,67305472;0,00762963
0,67321856;0,00762963
0,67338240;0,09735405
0,67354624;0,00762963
0,67371008;0,00762963
0,67387392;0,00762963
0,67403776;0,00762963
0,67420160;0,00762963
0,67436544;0,00762963
0,67452928;0,09735405
0,67469312;0,00762963
0,67485696;0,00762963
0,67502080;0,00762963
0,67518464;0,00762963
0,67534848;0,00762963
0,67551232;0,00762963
0,67567616;0,00762963
0,67584000;0,00762963
0,67600384;0,00762963
0,67616768;-0,08209479
0,67633152;0,00762963
0,67649536;0,00762963
0,67665920;0,00762963
0,67682304;-0,08209479
0,67698688;0,00762963
0,67715072;-0,08209479
0,67731456;-0,08209479
0,67747840;-0,08209479
0,67764224;-0,08209479
0,67780608;-0,08209479
0,67796992;-0,08209479
0,67813376;-0,08209479
0,67829760;-0,08209479
0,67846144;-0,08209479
0,67862528;-0,08209479
0,67878912;-0,08209479
0,67895296;-0,08209479
0,67911680;-0,08209479
0,67928064;-0,08209479
0,67944448;-0,08209479
0,67960832;-0,08209479
0,67977216;-0,17181920
0,67993600;-0,08209479
0,68009984;-0,08209479
0,68026368;-0,08209479
0,68042752;-0,08209479
0,68059136;-0,08209479
0,68075520;-0,17181920
0,68091904;-0,08209479
0,68108288;-0,08209479
0,68124672;-0,08209479
0,68141056;-0,08209479
0,68157440;-0,08209479
0,68173824;0,00762963
0,68190208;0,00762963
0,68206592;0,00762963
0,68222976;0,00762963
0,68239360;0,00762963
0,68255744;0,00762963
0,68272128;0,00762963
0,68288512;0,00762963
0,68304896;0,09735405
0,68321280;0,36652730
0,68337664;0,72573020
0,68354048;1,08493300
0,68370432;1,62389000
0,68386816;1,98309300
0,68403200;2,43202000
0,68419584;2,88094700
0,68435968;3,41990400
0,68452352;3,77910700
0,68468736;4,22803400
0,68485120;4,67696100
0,68501504;5,12619400
0,68517888;5,39536700
0,68534272;5,57512100
0,68550656;5,66484600
0,68567040;5,66484600
0,68583424;5,75457000
0,68599808;5,66484600
0,68616192;5,75457000
0,68632576;5,75457000
0,68648960;5,75457000
0,68665344;5,75457000
0,68681728;5,75457000
0,68698112;5,66484600
0,68714496;5,75457000
0,68730880;5,75457000
0,68747264;5,75457000
0,68763648;5,75457000
0,68780032;5,75457000
0,68796416;5,75457000
0,68812800;5,66484600
0,68829184;5,75457000
0,68845568;5,75457000
0,68861952;5,75457000
0,68878336;5,75457000
0,68894720;5,75457000
0,68911104;5,75457000
0,68927488;5,75457000
0,68943872;5,75457000
0,68960256;5,75457000
0,68976640;5,66484600
0,68993024;5,75457000
0,69009408;5,66484600
0,69025792;5,75457000
0,69042176;5,75457000
0,69058560;5,75457000
0,69074944;5,75457000
0,69091328;5,66484600
0,69107712;5,66484600
0,69124096;5,75457000
0,69140480;5,75457000
0,69156864;5,75457000
0,69173248;5,75457000
0,69189632;5,75457000
0,69206016;5,66484600
0,69222400;5,75457000
0,69238784;5,75457000
0,69255168;5,75457000
0,69271552;5,75457000
0,69287936;5,66484600
0,69304320;5,75457000
0,69320704;5,75457000
0,69337088;5,66484600
0,69353472;5,75457000
0,69369856;5,66484600
0,69386240;5,75457000
0,69402624;5,66484600
0,69419008;5,75457000
0,69435392;5,75457000
0,69451776;5,75457000
0,69468160;5,66484600
0,69484544;5,75457000
0,69500928;5,66484600
0,69517312;5,75457000
0,69533696;5,75457000
0,69550080;5,75457000
0,69566464;5,75457000
0,69582848;5,75457000
0,69599232;5,75457000
0,69615616;5,75457000
0,69632000;5,75457000
0,69648384;5,75457000
0,69664768;5,66484600
0,69681152;5,57512100
0,69697536;5,39536700
0,69713920;5,21591900
0,69730304;4,85671600
0,69746688;4,58723700
0,69763072;4,31775900
0,69779456;3,95855600
0,69795840;3,59935300
0,69812224;3,33018000
0,69828608;2,97097700
0,69844992;2,70149900
0,69861376;2,25257100
0,69877760;1,98309300
0,69894144;1,53416600
0,69910528;1,17496300
0,69926912;0,90548420
0,69943296;0,54628130
0,69959680;0,27680290
0,69976064;0,18707850
0,69992448;0,09735405
0,70008832;0,09735405
0,70025216;0,00762963
0,70041600;0,00762963
0,70057984;0,00762963
0,70074368;0,00762963
0,70090752;0,00762963
0,70107136;0,00762963
0,70123520;0,00762963
0,70139904;0,00762963
0,70156288;0,00762963
0,70172672;-0,08209479
0,70189056;0,00762963
0,70205440;0,00762963
0,70221824;0,00762963
0,70238208;0,00762963
0,70254592;0,00762963
0,70270976;0,00762963
0,70287360;0,00762963
0,70303744;0,00762963
0,70320128;-0,08209479
0,70336512;0,00762963
0,70352896;0,00762963
0,70369280;0,00762963
0,70385664;0,00762963
0,70402048;0,00762963
0,70418432;0,00762963
0,70434816;0,00762963
0,70451200;0,00762963
0,70467584;0,00762963
0,70483968;0,00762963
0,70500352;0,00762963
0,70516736;0,09735405
0,70533120;0,00762963
0,70549504;0,00762963
0,70565888;0,00762963
0,70582272;0,09735405
0,70598656;0,00762963
0,70615040;0,00762963
0,70631424;0,09735405
0,70647808;0,00762963
0,70664192;0,09735405
0,70680576;0,00762963
0,70696960;0,00762963
0,70713344;0,00762963
0,70729728;0,00762963
0,70746112;0,00762963
0,70762496;0,00762963
0,70778880;0,00762963
0,70795264;0,00762963
0,70811648;0,00762963
0,70828032;0,09735405
0,70844416;0,00762963
0,70860800;0,00762963
0,70877184;0,00762963
0,70893568;0,00762963
0,70909952;0,00762963
0,70926336;0,00762963
0,70942720;0,00762963
0,70959104;0,00762963
0,70975488;0,00762963
0,70991872;0,00762963
0,71008256;0,00762963
0,71024640;0,00762963
0,71041024;0,00762963
0,71057408;-0,08209479
0,71073792;0,00762963
0,71090176;-0,08209479
0,71106560;-0,08209479
0,71122944;-0,08209479
0,71139328;0,00762963
0,71155712;-0,08209479
0,71172096;-0,08209479
0,71188480;-0,08209479
0,71204864;-0,08209479
0,71221248;-0,08209479
0,71237632;-0,08209479
0,71254016;-0,08209479
0,71270400;-0,08209479
0,71286784;-0,08209479
0,71303168;-0,08209479
0,71319552;-0,08209479
0,71335936;-0,08209479
0,71352320;-0,08209479
0,71368704;-0,08209479
0,71385088;-0,08209479
0,71401472;-0,08209479
0,71417856;-0,08209479
0,71434240;-0,08209479
0,71450624;-0,08209479
0,71467008;-0,08209479
0,71483392;-0,08209479
0,71499776;0,00762963
0,71516160;0,00762963
0,71532544;0,00762963
0,71548928;0,00762963
0,71565312;0,00762963
0,71581696;0,00762963
0,71598080;0,00762963
0,71614464;0,00762963
0,71630848;0,00762963
0,71647232;0,00762963
0,71663616;0,18707850
0,71680000;0,36652730
0,71696384;0,72573020
0,71712768;1,08493300
0,71729152;1,53416600
0,71745536;1,98309300
0,71761920;2,43202000
0,71778304;2,88094700
0,71794688;3,33018000
0,71811072;3,77910700
0,71827456;4,22803400
0,71843840;4,67696100
0,71860224;5,12619400
0,71876608;5,39536700
0,71892992;5,57512100
0,71909376;5,66484600
0,71925760;5,66484600
0,71942144;5,66484600
0,71958528;5,75457000
0,71974912;5,75457000
0,71991296;5,75457000
0,72007680;5,75457000
0,72024064;5,75457000
0,72040448;5,75457000
0,72056832;5,75457000
0,72073216;5,75457000
0,72089600;5,75457000
0,72105984;5,75457000
0,72122368;5,75457000
0,72138752;5,75457000
0,72155136;5,75457000
0,72171520;5,66484600
0,72187904;5,75457000
0,72204288;5,75457000
0,72220672;5,75457000
0,72237056;5,75457000
0,72253440;5,75457000
0,72269824;5,75457000
0,72286208;5,75457000
0,72302592;5,75457000
0,72318976;5,75457000
0,72335360;5,75457000
0,72351744;5,75457000
0,72368128;5,75457000
0,72384512;5,75457000
0,72400896;5,75457000
0,72417280;5,75457000
0,72433664;5,75457000
0,72450048;5,75457000
0,72466432;5,75457000
0,72482816;5,75457000
0,72499200;5,66484600
0,72515584;5,75457000
0,72531968;5,75457000
0,72548352;5,75457000
0,72564736;5,75457000
0,72581120;5,75457000
0,72597504;5,75457000
0,72613888;5,66484600
0,72630272;5,66484600
0,72646656;5,66484600
0,72663040;5,66484600
0,72679424;5,75457000
0,72695808;5,75457000
0,72712192;5,75457000
0,72728576;5,75457000
0,72744960;5,75457000
0,72761344;5,75457000
0,72777728;5,75457000
0,72794112;5,75457000
0,72810496;5,75457000
0,72826880;5,75457000
0,72843264;5,75457000
0,72859648;5,75457000
0,72876032;5,66484600
0,72892416;5,75457000
0,72908800;5,75457000
0,72925184;5,66484600
0,72941568;5,75457000
0,72957952;5,75457000
0,72974336;5,66484600
0,72990720;5,75457000
0,73007104;5,75457000
0,73023488;5,66484600
0,73039872;5,57512100
0,73056256;5,57512100
0,73072640;5,30564300
0,73089024;5,03616400
0,73105408;4,67696100
0,73121792;4,40778800
0,73138176;4,13831000
0,73154560;3,77910700
0,73170944;3,41990400
0,73187328;3,15042600
0,73203712;2,79122300
0,73220096;2,43202000
0,73236480;2,07281700
0,73252864;1,71361400
0,73269248;1,35441100
0,73285632;0,99520860
0,73302016;0,72573020
0,73318400;0,36652730
0,73334784;0,27680290
0,73351168;0,18707850
0,73367552;0,09735405
0,73383936;0,09735405
0,73400320;0,00762963
0,73416704;0,00762963
0,73433088;0,00762963
0,73449472;0,00762963
0,73465856;0,00762963
0,73482240;0,00762963
0,73498624;0,00762963
0,73515008;0,00762963
0,73531392;0,00762963
0,73547776;0,00762963
0,73564160;0,00762963
0,73580544;0,00762963
0,73596928;0,00762963
0,73613312;0,00762963
0,73629696;0,00762963
0,73646080;0,00762963
0,73662464;0,00762963
0,73678848;0,00762963
0,73695232;0,00762963
0,73711616;0,00762963
0,73728000;0,00762963
0,73744384;0,00762963
0,73760768;0,00762963
0,73777152;0,00762963
0,73793536;0,00762963
0,73809920;0,00762963
0,73826304;0,00762963
0,73842688;0,00762963
0,73859072;0,00762963
0,73875456;0,00762963
0,73891840;0,00762963
0,73908224;0,00762963
0,73924608;0,09735405
0,73940992;0,09735405
0,73957376;0,09735405
0,73973760;0,00762963
0,73990144;0,09735405
0,74006528;0,09735405
0,74022912;0,00762963
0,74039296;0,00762963
0,74055680;0,00762963
0,74072064;0,00762963
0,74088448;0,00762963
0,74104832;0,00762963
0,74121216;0,00762963
0,74137600;0,00762963
0,74153984;0,00762963
0,74170368;0,00762963
0,74186752;0,00762963
0,74203136;0,00762963
0,74219520;0,00762963
0,74235904;0,00762963
0,74252288;0,00762963
0,74268672;0,00762963
0,74285056;0,00762963
0,74301440;0,00762963
0,74317824;0,00762963
0,74334208;0,00762963
0,74350592;0,00762963
0,74366976;0,00762963
0,74383360;0,00762963
0,74399744;-0,08209479
0,74416128;-0,08209479
0,74432512;0,00762963
0,74448896;0,00762963
0,74465280;-0,08209479
0,74481664;-0,08209479
0,74498048;-0,08209479
0,74514432;-0,08209479
0,74530816;-0,08209479
0,74547200;-0,08209479
0,74563584;-0,08209479
0,74579968;-0,08209479
0,74596352;-0,08209479
0,74612736;-0,08209479
0,74629120;-0,08209479
0,74645504;-0,08209479
0,74661888;-0,08209479
0,74678272;-0,08209479
0,74694656;-0,08209479
0,74711040;-0,08209479
0,74727424;-0,08209479
0,74743808;-0,08209479
0,74760192;-0,08209479
0,74776576;-0,08209479
0,74792960;-0,08209479
0,74809344;-0,08209479
0,74825728;-0,08209479
0,74842112;-0,08209479
0,74858496;-0,08209479
0,74874880;-0,17181920
0,74891264;-0,17181920
0,74907648;-0,08209479
0,74924032;-0,08209479
0,74940416;-0,08209479
0,74956800;-0,08209479
0,74973184;-0,08209479
0,74989568;-0,08209479
0,75005952;0,00762963
0,75022336;0,00762963
0,75038720;0,00762963
0,75055104;0,00762963
0,75071488;0,00762963
0,75087872;0,00762963
0,75104256;0,09735405
0,75120640;0,27680290
0,75137024;0,54628130
0,75153408;0,99520860
0,75169792;1,35441100
0,75186176;1,80333900
0,75202560;2,25257100
0,75218944;2,70149900
0,75235328;3,15042600
0,75251712;3,68938300
0,75268096;4,13831000
0,75284480;4,58723700
0,75300864;5,03616400
0,75317248;5,30564300
0,75333632;5,57512100
0,75350016;5,66484600
0,75366400;5,66484600
0,75382784;5,75457000
0,75399168;5,66484600
0,75415552;5,75457000
0,75431936;5,75457000
0,75448320;5,75457000
0,75464704;5,75457000
0,75481088;5,75457000
0,75497472;5,75457000
0,75513856;5,66484600
0,75530240;5,75457000
0,75546624;5,75457000
0,75563008;5,75457000
0,75579392;5,75457000
0,75595776;5,75457000
0,75612160;5,75457000
0,75628544;5,75457000
0,75644928;5,75457000
0,75661312;5,75457000
0,75677696;5,75457000
0,75694080;5,75457000
0,75710464;5,75457000
0,75726848;5,75457000
0,75743232;5,66484600
0,75759616;5,75457000
0,75776000;5,75457000
0,75792384;5,75457000
0,75808768;5,75457000
0,75825152;5,75457000
0,75841536;5,75457000
0,75857920;5,75457000
0,75874304;5,75457000
0,75890688;5,75457000
0,75907072;5,75457000
0,75923456;5,75457000
0,75939840;5,75457000
0,75956224;5,75457000
0,75972608;5,75457000
0,75988992;5,75457000
0,76005376;5,75457000
0,76021760;5,66484600
0,76038144;5,75457000
0,76054528;5,75457000
0,76070912;5,66484600
0,76087296;5,75457000
0,76103680;5,75457000
0,76120064;5,75457000
0,76136448;5,66484600
0,76152832;5,75457000
0,76169216;5,75457000
0,76185600;5,75457000
0,76201984;5,66484600
0,76218368;5,75457000
0,76234752;5,66484600
0,76251136;5,75457000
0,76267520;5,75457000
0,76283904;5,75457000
0,76300288;5,75457000
0,76316672;5,75457000
0,76333056;5,75457000
0,76349440;5,75457000
0,76365824;5,75457000
0,76382208;5,75457000
0,76398592;5,66484600
0,76414976;5,75457000
0,76431360;5,75457000
0,76447744;5,75457000
0,76464128;5,66484600
0,76480512;5,66484600
0,76496896;5,48539700
0,76513280;5,30564300
0,76529664;5,03616400
0,76546048;4,76699100
0,76562432;4,49751300
0,76578816;4,13831000
0,76595200;3,77910700
0,76611584;3,50962900
0,76627968;3,15042600
0,76644352;2,79122300
0,76660736;2,43202000
0,76677120;2,16254200
0,76693504;1,71361400
0,76709888;1,35441100
0,76726272;1,08493300
0,76742656;0,72573020
0,76759040;0,45655690
0,76775424;0,27680290
0,76791808;0,18707850
0,76808192;0,09735405
0,76824576;0,09735405
0,76840960;0,00762963
0,76857344;0,00762963
0,76873728;0,00762963
0,76890112;0,00762963
0,76906496;-0,08209479
0,76922880;0,00762963
0,76939264;0,00762963
0,76955648;0,00762963
0,76972032;0,00762963
0,76988416;-0,08209479
0,77004800;0,00762963
0,77021184;0,00762963
0,77037568;0,00762963
0,77053952;0,00762963
0,77070336;0,00762963
0,77086720;0,00762963
0,77103104;0,00762963
0,77119488;0,00762963
0,77135872;0,00762963
0,77152256;0,00762963
0,77168640;0,00762963
0,77185024;0,00762963
0,77201408;0,00762963
0,77217792;0,00762963
0,77234176;0,00762963
0,77250560;0,00762963
0,77266944;0,00762963
0,77283328;0,00762963
0,77299712;0,00762963
0,77316096;0,00762963
0,77332480;0,00762963
0,77348864;0,00762963
0,77365248;0,00762963
0,77381632;0,00762963
0,77398016;0,00762963
0,77414400;0,00762963
0,77430784;0,00762963
0,77447168;0,00762963
0,77463552;0,09735405
0,77479936;0,00762963
0,77496320;0,09735405
0,77512704;0,09735405
0,77529088;0,09735405
0,77545472;0,09735405
0,77561856;0,00762963
0,77578240;0,00762963
0,77594624;0,00762963
0,77611008;0,00762963
0,77627392;0,00762963
0,77643776;0,00762963
0,77660160;0,00762963
0,77676544;0,00762963
0,77692928;0,00762963
0,77709312;0,00762963
0,77725696;0,00762963
0,77742080;0,00762963
0,77758464;0,00762963
0,77774848;0,00762963
0,77791232;0,00762963
0,77807616;0,00762963
0,77824000;0,00762963
0,77840384;0,00762963
0,77856768;0,00762963
0,77873152;0,00762963
0,77889536;0,00762963
0,77905920;0,00762963
0,77922304;-0,08209479
0,77938688;0,00762963
0,77955072;-0,08209479
0,77971456;0,00762963
0,77987840;0,00762963
0,78004224;-0,08209479
0,78020608;-0,08209479
0,78036992;-0,08209479
0,78053376;-0,08209479
0,78069760;-0,08209479
0,78086144;-0,08209479
0,78102528;-0,08209479
0,78118912;-0,08209479
0,78135296;-0,08209479
0,78151680;-0,08209479
0,78168064;-0,08209479
0,78184448;-0,08209479
0,78200832;-0,08209479
0,78217216;-0,08209479
0,78233600;-0,08209479
0,78249984;-0,08209479
0,78266368;-0,17181920
0,78282752;-0,08209479
0,78299136;-0,08209479
0,78315520;-0,17181920
0,78331904;-0,08209479
0,78348288;-0,08209479
0,78364672;-0,08209479
0,78381056;-0,17181920
0,78397440;-0,08209479
0,78413824;-0,08209479
0,78430208;-0,08209479
0,78446592;-0,08209479
0,78462976;-0,08209479
0,78479360;-0,08209479
0,78495744;0,00762963
0,78512128;0,00762963
0,78528512;0,00762963
0,78544896;0,00762963
0,78561280;0,00762963
0,78577664;0,00762963
0,78594048;0,00762963
0,78610432;0,18707850
0,78626816;0,45655690
0,78643200;0,81575980
0,78659584;1,17496300
0,78675968;1,62389000
0,78692352;2,07281700
0,78708736;2,52174400
0,78725120;3,06070100
0,78741504;3,41990400
0,78757888;3,95855600
0,78774272;4,40778800
0,78790656;4,85671600
0,78807040;5,21591900
0,78823424;5,48539700
0,78839808;5,57512100
0,78856192;5,66484600
0,78872576;5,75457000
0,78888960;5,75457000
0,78905344;5,75457000
0,78921728;5,75457000
0,78938112;5,75457000
0,78954496;5,75457000
0,78970880;5,75457000
0,78987264;5,75457000
0,79003648;5,75457000
0,79020032;5,75457000
0,79036416;5,75457000
0,79052800;5,75457000
0,79069184;5,75457000
0,79085568;5,75457000
0,79101952;5,75457000
0,79118336;5,75457000
0,79134720;5,75457000
0,79151104;5,75457000
0,79167488;5,75457000
0,79183872;5,75457000
0,79200256;5,75457000
0,79216640;5,75457000
0,79233024;5,75457000
0,79249408;5,75457000
0,79265792;5,75457000
0,79282176;5,75457000
0,79298560;5,66484600
0,79314944;5,75457000
0,79331328;5,75457000
0,79347712;5,75457000
0,79364096;5,75457000
0,79380480;5,75457000
0,79396864;5,75457000
0,79413248;5,75457000
0,79429632;5,75457000
0,79446016;5,75457000
0,79462400;5,75457000
0,79478784;5,75457000
0,79495168;5,75457000
0,79511552;5,66484600
0,79527936;5,75457000
0,79544320;5,75457000
0,79560704;5,66484600
0,79577088;5,75457000
0,79593472;5,75457000
0,79609856;5,75457000
0,79626240;5,75457000
0,79642624;5,75457000
0,79659008;5,75457000
0,79675392;5,66484600
0,79691776;5,66484600
0,79708160;5,75457000
0,79724544;5,66484600
0,79740928;5,75457000
0,79757312;5,66484600
0,79773696;5,66484600
0,79790080;5,75457000
0,79806464;5,66484600
0,79822848;5,75457000
0,79839232;5,75457000
0,79855616;5,75457000
0,79872000;5,75457000
0,79888384;5,75457000
0,79904768;5,75457000
0,79921152;5,75457000
0,79937536;5,75457000
0,79953920;5,66484600
0,79970304;5,66484600
0,79986688;5,57512100
0,80003072;5,39536700
0,80019456;5,12619400
0,80035840;4,85671600
0,80052224;4,49751300
0,80068608;4,22803400
0,80084992;3,86883100
0,80101376;3,59935300
0,80117760;3,24015000
0,80134144;2,88094700
0,80150528;2,52174400
0,80166912;2,16254200
0,80183296;1,80333900
0,80199680;1,44413600
0,80216064;1,08493300
0,80232448;0,72573020
0,80248832;0,45655690
0,80265216;0,27680290
0,80281600;0,18707850
0,80297984;0,09735405
0,80314368;0,09735405
0,80330752;0,00762963
0,80347136;0,00762963
0,80363520;0,00762963
0,80379904;0,00762963
0,80396288;0,00762963
0,80412672;0,00762963
0,80429056;-0,08209479
0,80445440;0,00762963
0,80461824;0,00762963
0,80478208;0,00762963
0,80494592;0,00762963
0,80510976;0,00762963
0,80527360;0,00762963
0,80543744;0,00762963
0,80560128;0,00762963
0,80576512;0,00762963
0,80592896;-0,08209479
0,80609280;0,00762963
0,80625664;0,00762963
0,80642048;0,00762963
0,80658432;0,00762963
0,80674816;0,00762963
0,80691200;0,00762963
0,80707584;0,00762963
0,80723968;0,00762963
0,80740352;0,00762963
0,80756736;0,00762963
0,80773120;0,00762963
0,80789504;0,00762963
0,80805888;0,00762963
0,80822272;0,00762963
0,80838656;0,09735405
0,80855040;0,00762963
0,80871424;0,09735405
0,80887808;0,00762963
0,80904192;0,09735405
0,80920576;0,00762963
0,80936960;0,00762963
0,80953344;0,00762963
0,80969728;0,00762963
0,80986112;0,00762963
0,81002496;0,00762963
0,81018880;0,00762963
0,81035264;0,00762963
0,81051648;0,00762963
0,81068032;0,00762963
0,81084416;0,00762963
0,81100800;0,00762963
0,81117184;0,00762963
0,81133568;0,00762963
0,81149952;0,00762963
0,81166336;0,00762963
0,81182720;0,00762963
0,81199104;0,00762963
0,81215488;0,00762963
0,81231872;0,00762963
0,81248256;0,00762963
0,81264640;0,00762963
0,81281024;0,00762963
0,81297408;0,00762963
0,81313792;0,00762963
0,81330176;0,00762963
0,81346560;0,00762963
0,81362944;0,00762963
0,81379328;-0,08209479
0,81395712;0,00762963
0,81412096;-0,08209479
0,81428480;-0,08209479
0,81444864;-0,08209479
0,81461248;-0,08209479
0,81477632;0,00762963
0,81494016;-0,08209479
0,81510400;-0,08209479
0,81526784;-0,08209479
0,81543168;-0,08209479
0,81559552;-0,08209479
0,81575936;-0,08209479
0,81592320;-0,08209479
0,81608704;-0,08209479
0,81625088;-0,08209479
0,81641472;-0,08209479
0,81657856;-0,08209479
0,81674240;-0,08209479
0,81690624;-0,08209479
0,81707008;-0,08209479
0,81723392;-0,08209479
0,81739776;-0,08209479
0,81756160;-0,08209479
0,81772544;-0,08209479
0,81788928;-0,08209479
0,81805312;-0,08209479
0,81821696;0,00762963
0,81838080;0,00762963
0,81854464;0,00762963
0,81870848;0,00762963
0,81887232;0,00762963
0,81903616;0,00762963
0,81920000;-0,08209479
0,81936384;0,00762963
0,81952768;0,00762963
0,81969152;0,18707850
0,81985536;0,45655690
0,82001920;0,81575980
0,82018304;1,26468700
0,82034688;1,62389000
0,82051072;2,07281700
0,82067456;2,52174400
0,82083840;3,06070100
0,82100224;3,41990400
0,82116608;3,86883100
0,82132992;4,40778800
0,82149376;4,85671600
0,82165760;5,21591900
0,82182144;5,48539700
0,82198528;5,57512100
0,82214912;5,66484600
0,82231296;5,66484600
0,82247680;5,75457000
0,82264064;5,75457000
0,82280447;5,75457000
0,82296831;5,66484600
0,82313215;5,75457000
0,82329599;5,75457000
0,82345983;5,75457000
0,82362367;5,75457000
0,82378751;5,75457000
0,82395135;5,75457000
0,82411519;5,75457000
0,82427903;5,75457000
0,82444287;5,75457000
0,82460671;5,75457000
0,82477055;5,75457000
0,82493439;5,75457000
0,82509823;5,75457000
0,82526207;5,75457000
0,82542591;5,75457000
0,82558975;5,75457000
0,82575359;5,66484600
0,82591743;5,75457000
0,82608127;5,75457000
0,82624511;5,75457000
0,82640895;5,75457000
0,82657279;5,75457000
0,82673663;5,75457000
0,82690047;5,75457000
0,82706431;5,75457000
0,82722815;5,75457000
0,82739199;5,75457000
0,82755583;5,75457000
0,82771967;5,75457000
0,82788351;5,75457000
0,82804735;5,75457000
0,82821119;5,75457000
0,82837503;5,66484600
0,82853887;5,75457000
0,82870271;5,75457000
0,82886655;5,75457000
0,82903039;5,75457000
0,82919423;5,75457000
0,82935807;5,75457000
0,82952191;5,75457000
0,82968575;5,75457000
0,82984959;5,66484600
0,83001343;5,75457000
0,83017727;5,66484600
0,83034111;5,75457000
0,83050495;5,75457000
0,83066879;5,75457000
0,83083263;5,75457000
0,83099647;5,75457000
0,83116031;5,75457000
0,83132415;5,75457000
0,83148799;5,75457000
0,83165183;5,75457000
0,83181567;5,66484600
0,83197951;5,75457000
0,83214335;5,75457000
0,83230719;5,66484600
0,83247103;5,75457000
0,83263487;5,75457000
0,83279871;5,66484600
0,83296255;5,75457000
0,83312639;5,66484600
0,83329023;5,66484600
0,83345407;5,57512100
0,83361791;5,48539700
0,83378175;5,21591900
0,83394559;4,94644000
0,83410943;4,58723700
0,83427327;4,31775900
0,83443711;3,95855600
0,83460095;3,68938300
0,83476479;3,41990400
0,83492863;3,06070100
0,83509247;2,70149900
0,83525631;2,34229600
0,83542015;1,98309300
0,83558399;1,62389000
0,83574783;1,26468700
0,83591167;0,90548420
0,83607551;0,63600580
0,83623935;0,36652730
0,83640319;0,18707850
0,83656703;0,09735405
0,83673087;0,09735405
0,83689471;0,00762963
0,83705855;0,00762963
0,83722239;0,00762963
0,83738623;0,00762963
0,83755007;0,00762963
0,83771391;0,00762963
0,83787775;0,00762963
0,83804159;0,00762963
0,83820543;0,00762963
0,83836927;0,00762963
0,83853311;0,00762963
0,83869695;0,00762963
0,83886079;0,00762963
0,83902463;0,00762963
0,83918847;0,00762963
0,83935231;0,00762963
0,83951615;0,00762963
0,83967999;0,00762963
0,83984383;0,00762963
0,84000767;0,00762963
0,84017151;0,00762963
0,84033535;0,00762963
0,84049919;0,00762963
0,84066303;0,00762963
0,84082687;0,00762963
0,84099071;-0,08209479
0,84115455;0,00762963
0,84131839;0,00762963
0,84148223;0,00762963
0,84164607;0,00762963
0,84180991;0,00762963
0,84197375;0,00762963
0,84213759;0,00762963
0,84230143;0,00762963
0,84246527;0,00762963
0,84262911;0,09735405
0,84279295;0,00762963
0,84295679;0,00762963
0,84312063;0,00762963
0,84328447;0,00762963
0,84344831;0,00762963
0,84361215;0,00762963
0,84377599;0,00762963
0,84393983;0,09735405
0,84410367;0,00762963
0,84426751;0,00762963
0,84443135;0,00762963
0,84459519;0,00762963
0,84475903;0,00762963
0,84492287;0,00762963
0,84508671;0,00762963
0,84525055;0,00762963
0,84541439;0,00762963
0,84557823;0,00762963
0,84574207;0,00762963
0,84590591;0,00762963
0,84606975;0,00762963
0,84623359;0,00762963
0,84639743;0,00762963
0,84656127;0,00762963
0,84672511;0,00762963
0,84688895;0,00762963
0,84705279;0,00762963
0,84721663;0,00762963
0,84738047;-0,08209479
0,84754431;0,00762963
0,84770815;-0,08209479
0,84787199;-0,08209479
0,84803583;0,00762963
0,84819967;-0,08209479
0,84836351;-0,08209479
0,84852735;-0,08209479
0,84869119;-0,08209479
0,84885503;-0,08209479
0,84901887;-0,08209479
0,84918271;-0,08209479
0,84934655;-0,08209479
0,84951039;-0,08209479
0,84967423;-0,08209479
0,84983807;-0,08209479
0,85000191;-0,08209479
0,85016575;-0,08209479
0,85032959;-0,08209479
0,85049343;-0,08209479
0,85065727;-0,08209479
0,85082111;-0,08209479
0,85098495;-0,17181920
0,85114879;-0,08209479
0,85131263;-0,17181920
0,85147647;-0,17181920
0,85164031;-0,08209479
0,85180415;-0,17181920
0,85196799;-0,08209479
0,85213183;-0,08209479
0,85229567;-0,08209479
0,85245951;-0,08209479
0,85262335;-0,08209479
0,85278719;0,00762963
0,85295103;0,00762963
0,85311487;0,00762963
0,85327871;0,00762963
0,85344255;0,00762963
0,85360639;0,00762963
0,85377023;0,00762963
0,85393407;0,00762963
0,85409791;0,09735405
0,85426175;0,36652730
0,85442559;0,72573020
0,85458943;1,08493300
0,85475327;1,53416600
0,85491711;1,98309300
0,85508095;2,43202000
0,85524479;2,88094700
0,85540863;3,33018000
0,85557247;3,86883100
0,85573631;4,31775900
0,85590015;4,76699100
0,85606399;5,12619400
0,85622783;5,39536700
0,85639167;5,57512100
0,85655551;5,66484600
0,85671935;5,66484600
0,85688319;5,66484600
0,85704703;5,66484600
0,85721087;5,66484600
0,85737471;5,75457000
0,85753855;5,75457000
0,85770239;5,75457000
0,85786623;5,75457000
0,85803007;5,66484600
0,85819391;5,75457000
0,85835775;5,66484600
0,85852159;5,66484600
0,85868543;5,66484600
0,85884927;5,75457000
0,85901311;5,75457000
0,85917695;5,75457000
0,85934079;5,75457000
0,85950463;5,75457000
0,85966847;5,66484600
0,85983231;5,75457000
0,85999615;5,75457000
0,86015999;5,75457000
0,86032383;5,75457000
0,86048767;5,75457000
0,86065151;5,75457000
0,86081535;5,66484600
0,86097919;5,75457000
0,86114303;5,75457000
0,86130687;5,75457000
0,86147071;5,75457000
0,86163455;5,75457000
0,86179839;5,66484600
0,86196223;5,75457000
0,86212607;5,75457000
0,86228991;5,75457000
0,86245375;5,75457000
0,86261759;5,75457000
0,86278143;5,75457000
0,86294527;5,75457000
0,86310911;5,75457000
0,86327295;5,75457000
0,86343679;5,75457000
0,86360063;5,75457000
0,86376447;5,75457000
0,86392831;5,75457000
0,86409215;5,75457000
0,86425599;5,75457000
0,86441983;5,75457000
0,86458367;5,75457000
0,86474751;5,75457000
0,86491135;5,75457000
0,86507519;5,75457000
0,86523903;5,75457000
0,86540287;5,75457000
0,86556671;5,66484600
0,86573055;5,75457000
0,86589439;5,75457000
0,86605823;5,75457000
0,86622207;5,75457000
0,86638591;5,75457000
0,86654975;5,75457000
0,86671359;5,66484600
0,86687743;5,75457000
0,86704127;5,75457000
0,86720511;5,75457000
0,86736895;5,66484600
0,86753279;5,75457000
0,86769663;5,66484600
0,86786047;5,57512100
0,86802431;5,48539700
0,86818815;5,30564300
0,86835199;4,94644000
0,86851583;4,67696100
0,86867967;4,31775900
0,86884351;4,04858500
0,86900735;3,77910700
0,86917119;3,41990400
0,86933503;3,06070100
0,86949887;2,70149900
0,86966271;2,34229600
0,86982655;1,98309300
0,86999039;1,62389000
0,87015423;1,26468700
0,87031807;0,99520860
0,87048191;0,63600580
0,87064575;0,36652730
0,87080959;0,18707850
0,87097343;0,18707850
0,87113727;0,09735405
0,87130111;0,00762963
0,87146495;0,00762963
0,87162879;0,00762963
0,87179263;0,00762963
0,87195647;0,00762963
0,87212031;0,00762963
0,87228415;0,00762963
0,87244799;0,00762963
0,87261183;0,00762963
0,87277567;0,00762963
0,87293951;0,00762963
0,87310335;0,00762963
0,87326719;0,00762963
0,87343103;0,00762963
0,87359487;0,00762963
0,87375871;0,00762963
0,87392255;0,00762963
0,87408639;0,00762963
0,87425023;0,00762963
0,87441407;0,00762963
0,87457791;0,00762963
0,87474175;-0,08209479
0,87490559;0,00762963
0,87506943;0,00762963
0,87523327;0,00762963
0,87539711;0,00762963
0,87556095;0,00762963
0,87572479;0,00762963
0,87588863;-0,08209479
0,87605247;0,00762963
0,87621631;0,00762963
0,87638015;-0,08209479
0,87654399;0,00762963
0,87670783;0,00762963
0,87687167;0,00762963
0,87703551;0,00762963
0,87719935;0,00762963
0,87736319;0,00762963
0,87752703;0,00762963
0,87769087;0,00762963
0,87785471;0,09735405
0,87801855;0,00762963
0,87818239;0,00762963
0,87834623;0,00762963
0,87851007;0,09735405
0,87867391;0,09735405
0,87883775;0,00762963
0,87900159;0,00762963
0,87916543;0,00762963
0,87932927;0,00762963
0,87949311;0,00762963
0,87965695;0,00762963
0,87982079;0,00762963
0,87998463;0,00762963
0,88014847;0,00762963
0,88031231;0,00762963
0,88047615;0,00762963
0,88063999;0,00762963
0,88080383;0,00762963
0,88096767;0,00762963
0,88113151;0,00762963
0,88129535;0,00762963
0,88145919;0,00762963
0,88162303;0,00762963
0,88178687;0,00762963
0,88195071;0,00762963
0,88211455;0,00762963
0,88227839;-0,08209479
0,88244223;0,00762963
0,88260607;-0,08209479
0,88276991;-0,08209479
0,88293375;-0,08209479
0,88309759;0,00762963
0,88326143;-0,08209479
0,88342527;-0,08209479
0,88358911;-0,08209479
0,88375295;-0,08209479
0,88391679;-0,08209479
0,88408063;-0,08209479
0,88424447;-0,08209479
0,88440831;-0,08209479
0,88457215;-0,08209479
0,88473599;-0,08209479
0,88489983;-0,08209479
0,88506367;-0,17181920
0,88522751;-0,08209479
0,88539135;-0,08209479
0,88555519;-0,17181920
0,88571903;-0,08209479
0,88588287;-0,08209479
0,88604671;-0,08209479
0,88621055;-0,08209479
0,88637439;-0,08209479
0,88653823;-0,08209479
0,88670207;-0,08209479
0,88686591;-0,08209479
0,88702975;-0,08209479
0,88719359;-0,08209479
0,88735743;-0,17181920
0,88752127;-0,08209479
0,88768511;0,00762963
0,88784895;-0,08209479
0,88801279;0,00762963
0,88817663;0,00762963
0,88834047;0,00762963
0,88850431;0,00762963
0,88866815;0,00762963
0,88883199;0,00762963
0,88899583;0,09735405
0,88915967;0,27680290
0,88932351;0,45655690
0,88948735;0,90548420
0,88965119;1,35441100
0,88981503;1,71361400
0,88997887;2,16254200
0,89014271;2,70149900
0,89030655;3,15042600
0,89047039;3,59935300
0,89063423;4,04858500
0,89079807;4,49751300
0,89096191;4,94644000
0,89112575;5,30564300
0,89128959;5,48539700
0,89145343;5,57512100
0,89161727;5,66484600
0,89178111;5,75457000
0,89194495;5,66484600
0,89210879;5,75457000
0,89227263;5,75457000
0,89243647;5,75457000
0,89260031;5,75457000
0,89276415;5,75457000
0,89292799;5,75457000
0,89309183;5,66484600
0,89325567;5,75457000
0,89341951;5,75457000
0,89358335;5,75457000
0,89374719;5,75457000
0,89391103;5,66484600
0,89407487;5,75457000
0,89423871;5,75457000
0,89440255;5,75457000
0,89456639;5,75457000
0,89473023;5,75457000
0,89489407;5,75457000
0,89505791;5,75457000
0,89522175;5,75457000
0,89538559;5,75457000
0,89554943;5,66484600
0,89571327;5,75457000
0,89587711;5,75457000
0,89604095;5,75457000
0,89620479;5,75457000
0,89636863;5,75457000
0,89653247;5,75457000
0,89669631;5,75457000
0,89686015;5,75457000
0,89702399;5,75457000
0,89718783;5,75457000
0,89735167;5,66484600
0,89751551;5,75457000
0,89767935;5,75457000
0,89784319;5,75457000
0,89800703;5,75457000
0,89817087;5,75457000
0,89833471;5,75457000
0,89849855;5,75457000
0,89866239;5,75457000
0,89882623;5,66484600
0,89899007;5,75457000
0,89915391;5,75457000
0,89931775;5,66484600
0,89948159;5,75457000
0,89964543;5,66484600
0,89980927;5,66484600
0,89997311;5,75457000
0,90013695;5,75457000
0,90030079;5,75457000
0,90046463;5,75457000
0,90062847;5,75457000
0,90079231;5,75457000
0,90095615;5,75457000
0,90111999;5,75457000
0,90128383;5,75457000
0,90144767;5,75457000
0,90161151;5,75457000
0,90177535;5,75457000
0,90193919;5,75457000
0,90210303;5,75457000
0,90226687;5,75457000
0,90243071;5,66484600
0,90259455;5,66484600
0,90275839;5,57512100
0,90292223;5,57512100
0,90308607;5,30564300
0,90324991;4,94644000
0,90341375;4,67696100
0,90357759;4,49751300
0,90374143;4,13831000
0,90390527;3,77910700
0,90406911;3,50962900
0,90423295;3,15042600
0,90439679;2,79122300
0,90456063;2,43202000
0,90472447;2,07281700
0,90488831;1,71361400
0,90505215;1,35441100
0,90521599;0,99520860
0,90537983;0,63600580
0,90554367;0,36652730
0,90570751;0,27680290
0,90587135;0,18707850
0,90603519;0,09735405
0,90619903;0,00762963
0,90636287;0,00762963
0,90652671;0,00762963
0,90669055;0,00762963
0,90685439;0,00762963
0,90701823;0,00762963
0,90718207;0,00762963
0,90734591;0,00762963
0,90750975;0,00762963
0,90767359;0,00762963
0,90783743;0,00762963
0,90800127;0,00762963
0,90816511;0,00762963
0,90832895;0,00762963
0,90849279;0,00762963
0,90865663;-0,08209479
0,90882047;0,00762963
0,90898431;0,00762963
0,90914815;0,00762963
0,90931199;0,00762963
0,90947583;0,00762963
0,90963967;0,00762963
0,90980351;0,00762963
0,90996735;0,00762963
0,91013119;0,00762963
0,91029503;0,00762963
0,91045887;0,00762963
0,91062271;0,00762963
0,91078655;0,00762963
0,91095039;0,00762963
0,91111423;0,00762963
0,91127807;0,09735405
0,91144191;0,09735405
0,91160575;0,09735405
0,91176959;0,09735405
0,91193343;0,00762963
0,91209727;0,09735405
0,91226111;0,00762963
0,91242495;0,09735405
0,91258879;0,00762963
0,91275263;0,00762963
0,91291647;0,09735405
0,91308031;0,00762963
0,91324415;0,00762963
0,91340799;0,00762963
0,91357183;0,00762963
0,91373567;0,00762963
0,91389951;0,00762963
0,91406335;0,00762963
0,91422719;0,00762963
0,91439103;0,00762963
0,91455487;0,00762963
0,91471871;0,00762963
0,91488255;0,00762963
0,91504639;0,00762963
0,91521023;-0,08209479
0,91537407;0,00762963
0,91553791;0,00762963
0,91570175;0,00762963
0,91586559;0,00762963
0,91602943;0,00762963
0,91619327;0,00762963
0,91635711;0,00762963
0,91652095;0,00762963
0,91668479;0,00762963
0,91684863;0,00762963
0,91701247;-0,08209479
0,91717631;0,00762963
0,91734015;-0,08209479
0,91750399;-0,08209479
0,91766783;-0,08209479
0,91783167;-0,08209479
0,91799551;-0,08209479
0,91815935;-0,08209479
0,91832319;-0,08209479
0,91848703;-0,08209479
0,91865087;-0,08209479
0,91881471;-0,08209479
0,91897855;-0,08209479
0,91914239;-0,08209479
0,91930623;-0,08209479
0,91947007;-0,08209479
0,91963391;-0,08209479
0,91979775;-0,08209479
0,91996159;-0,08209479
0,92012543;-0,08209479
0,92028927;-0,08209479
0,92045311;-0,08209479
0,92061695;-0,08209479
0,92078079;-0,08209479
0,92094463;-0,08209479
0,92110847;0,00762963
0,92127231;0,00762963
0,92143615;0,00762963
0,92159999;0,00762963
0,92176383;0,00762963
0,92192767;0,00762963
0,92209151;0,00762963
0,92225535;0,00762963
0,92241919;0,00762963
0,92258303;0,00762963
0,92274687;0,27680290
0,92291071;0,63600580
0,92307455;0,99520860
0,92323839;1,35441100
0,92340223;1,80333900
0,92356607;2,34229600
0,92372991;2,70149900
0,92389375;3,24015000
0,92405759;3,68938300
0,92422143;4,13831000
0,92438527;4,58723700
0,92454911;4,94644000
0,92471295;5,30564300
0,92487679;5,57512100
0,92504063;5,57512100
0,92520447;5,66484600
0,92536831;5,75457000
0,92553215;5,66484600
0,92569599;5,75457000
0,92585983;5,66484600
0,92602367;5,75457000
0,92618751;5,75457000
0,92635135;5,75457000
0,92651519;5,75457000
0,92667903;5,75457000
0,92684287;5,75457000
0,92700671;5,75457000
0,92717055;5,75457000
0,92733439;5,75457000
0,92749823;5,75457000
0,92766207;5,75457000
0,92782591;5,75457000
0,92798975;5,75457000
0,92815359;5,75457000
0,92831743;5,75457000
0,92848127;5,75457000
0,92864511;5,75457000
0,92880895;5,66484600
0,92897279;5,75457000
0,92913663;5,75457000
0,92930047;5,75457000
0,92946431;5,75457000
0,92962815;5,75457000
0,92979199;5,75457000
0,92995583;5,75457000
0,93011967;5,75457000
0,93028351;5,75457000
0,93044735;5,75457000
0,93061119;5,75457000
0,93077503;5,75457000
0,93093887;5,75457000
0,93110271;5,75457000
0,93126655;5,75457000
0,93143039;5,66484600
0,93159423;5,75457000
0,93175807;5,75457000
0,93192191;5,75457000
0,93208575;5,75457000
0,93224959;5,75457000
0,93241343;5,75457000
0,93257727;5,75457000
0,93274111;5,75457000
0,93290495;5,75457000
0,93306879;5,75457000
0,93323263;5,75457000
0,93339647;5,66484600
0,93356031;5,75457000
0,93372415;5,75457000
0,93388799;5,75457000
0,93405183;5,75457000
0,93421567;5,66484600
0,93437951;5,75457000
0,93454335;5,75457000
0,93470719;5,75457000
0,93487103;5,75457000
0,93503487;5,75457000
0,93519871;5,66484600
0,93536255;5,75457000
0,93552639;5,75457000
0,93569023;5,66484600
0,93585407;5,75457000
0,93601791;5,66484600
0,93618175;5,66484600
0,93634559;5,66484600
0,93650943;5,57512100
0,93667327;5,30564300
0,93683711;5,03616400
0,93700095;4,85671600
0,93716479;4,49751300
0,93732863;4,13831000
0,93749247;3,86883100
0,93765631;3,50962900
0,93782015;3,15042600
0,93798399;2,88094700
0,93814783;2,52174400
0,93831167;2,16254200
0,93847551;1,80333900
0,93863935;1,44413600
0,93880319;1,08493300
0,93896703;0,72573020
0,93913087;0,45655690
0,93929471;0,27680290
0,93945855;0,18707850
0,93962239;0,09735405
0,93978623;0,00762963
0,93995007;0,00762963
0,94011391;0,00762963
0,94027775;0,00762963
0,94044159;0,00762963
0,94060543;0,00762963
0,94076927;0,00762963
0,94093311;0,00762963
0,94109695;0,00762963
0,94126079;0,00762963
0,94142463;-0,08209479
0,94158847;0,00762963
0,94175231;0,00762963
0,94191615;0,00762963
0,94207999;0,00762963
0,94224383;0,00762963
0,94240767;0,00762963
0,94257151;0,00762963
0,94273535;0,00762963
0,94289919;0,00762963
0,94306303;0,00762963
0,94322687;0,00762963
0,94339071;0,00762963
0,94355455;0,00762963
0,94371839;-0,08209479
0,94388223;0,00762963
0,94404607;0,00762963
0,94420991;0,00762963
0,94437375;0,00762963
0,94453759;-0,08209479
0,94470143;0,00762963
0,94486527;0,00762963
0,94502911;0,00762963
0,94519295;0,00762963
0,94535679;0,00762963
0,94552063;0,09735405
0,94568447;0,00762963
0,94584831;0,00762963
0,94601215;0,09735405
0,94617599;0,00762963
0,94633983;0,00762963
0,94650367;0,00762963
0,94666751;0,00762963
0,94683135;0,00762963
0,94699519;0,09735405
0,94715903;0,00762963
0,94732287;0,00762963
0,94748671;0,00762963
0,94765055;0,00762963
0,94781439;0,00762963
0,94797823;0,00762963
0,94814207;0,00762963
0,94830591;0,00762963
0,94846975;0,00762963
0,94863359;0,00762963
0,94879743;0,00762963
0,94896127;0,00762963
0,94912511;0,00762963
0,94928895;0,00762963
0,94945279;0,00762963
0,94961663;0,00762963
0,94978047;0,00762963
0,94994431;0,00762963
0,95010815;0,00762963
0,95027199;0,00762963
0,95043583;-0,08209479
0,95059967;0,00762963
0,95076351;-0,08209479
0,95092735;0,00762963
0,95109119;-0,08209479
0,95125503;-0,08209479
0,95141887;0,00762963
0,95158271;-0,08209479
0,95174655;0,00762963
0,95191039;-0,08209479
0,95207423;-0,08209479
0,95223807;-0,08209479
0,95240191;-0,08209479
0,95256575;-0,08209479
0,95272959;-0,08209479
0,95289343;-0,08209479
0,95305727;-0,08209479
0,95322111;-0,08209479
0,95338495;-0,08209479
0,95354879;-0,08209479
0,95371263;-0,17181920
0,95387647;-0,08209479
0,95404031;-0,08209479
0,95420415;-0,08209479
0,95436799;-0,08209479
0,95453183;-0,08209479
0,95469567;-0,08209479
0,95485951;-0,17181920
0,95502335;-0,08209479
0,95518719;-0,17181920
0,95535103;-0,08209479
0,95551487;-0,08209479
0,95567871;-0,08209479
0,95584255;0,00762963
0,95600639;0,00762963
0,95617023;0,00762963
0,95633407;0,00762963
0,95649791;0,00762963
0,95666175;0,00762963
0,95682559;0,00762963
0,95698943;0,09735405
0,95715327;0,18707850
0,95731711;0,54628130
0,95748095;0,90548420
0,95764479;1,26468700
0,95780863;1,71361400
0,95797247;2,16254200
0,95813631;2,70149900
0,95830015;3,06070100
0,95846399;3,59935300
0,95862783;4,04858500
0,95879167;4,49751300
0,95895551;4,94644000
0,95911935;5,30564300
0,95928319;5,48539700
0,95944703;5,57512100
0,95961087;5,66484600
0,95977471;5,75457000
0,95993855;5,75457000
0,96010239;5,75457000
0,96026623;5,75457000
0,96043007;5,75457000
0,96059391;5,66484600
0,96075775;5,66484600
0,96092159;5,75457000
0,96108543;5,75457000
0,96124927;5,75457000
0,96141311;5,75457000
0,96157695;5,75457000
0,96174079;5,75457000
0,96190463;5,75457000
0,96206847;5,75457000
0,96223231;5,75457000
0,96239615;5,75457000
0,96255999;5,75457000
0,96272383;5,75457000
0,96288767;5,75457000
0,96305151;5,75457000
0,96321535;5,75457000
0,96337919;5,75457000
0,96354303;5,75457000
0,96370687;5,75457000
0,96387071;5,75457000
0,96403455;5,75457000
0,96419839;5,75457000
0,96436223;5,66484600
0,96452607;5,75457000
0,96468991;5,75457000
0,96485375;5,75457000
0,96501759;5,75457000
0,96518143;5,75457000
0,96534527;5,75457000
0,96550911;5,75457000
0,96567295;5,75457000
0,96583679;5,75457000
0,96600063;5,75457000
0,96616447;5,66484600
0,96632831;5,75457000
0,96649215;5,75457000
0,96665599;5,75457000
0,96681983;5,75457000
0,96698367;5,75457000
0,96714751;5,75457000
0,96731135;5,75457000
0,96747519;5,75457000
0,96763903;5,75457000
0,96780287;5,75457000
0,96796671;5,66484600
0,96813055;5,66484600
0,96829439;5,75457000
0,96845823;5,75457000
0,96862207;5,75457000
0,96878591;5,75457000
0,96894975;5,75457000
0,96911359;5,75457000
0,96927743;5,75457000
0,96944127;5,66484600
0,96960511;5,75457000
0,96976895;5,75457000
0,96993279;5,75457000
0,97009663;5,75457000
0,97026047;5,66484600
0,97042431;5,75457000
0,97058815;5,66484600
0,97075199;5,57512100
0,97091583;5,57512100
0,97107967;5,30564300
0,97124351;5,03616400
0,97140735;4,76699100
0,97157119;4,49751300
0,97173503;4,13831000
0,97189887;3,86883100
0,97206271;3,50962900
0,97222655;3,15042600
0,97239039;2,88094700
0,97255423;2,43202000
0,97271807;2,16254200
0,97288191;1,80333900
0,97304575;1,35441100
0,97320959;1,08493300
0,97337343;0,72573020
0,97353727;0,45655690
0,97370111;0,27680290
0,97386495;0,18707850
0,97402879;0,09735405
0,97419263;0,09735405
0,97435647;0,00762963
0,97452031;0,00762963
0,97468415;0,00762963
0,97484799;0,00762963
0,97501183;0,00762963
0,97517567;0,00762963
0,97533951;0,00762963
0,97550335;0,00762963
0,97566719;0,00762963
0,97583103;0,00762963
0,97599487;0,00762963
0,97615871;0,00762963
0,97632255;0,00762963
0,97648639;0,00762963
0,97665023;0,00762963
0,97681407;0,00762963
0,97697791;0,00762963
0,97714175;0,00762963
0,97730559;-0,08209479
0,97746943;0,00762963
0,97763327;0,00762963
0,97779711;0,00762963
0,97796095;0,00762963
0,97812479;0,00762963
0,97828863;0,00762963
0,97845247;0,00762963
0,97861631;0,00762963
0,97878015;0,00762963
0,97894399;0,00762963
0,97910783;0,00762963
0,97927167;0,00762963
0,97943551;0,00762963
0,97959935;0,00762963
0,97976319;0,00762963
0,97992703;0,00762963
0,98009087;0,00762963
0,98025471;0,00762963
0,98041855;0,09735405
0,98058239;0,00762963
0,98074623;0,00762963
0,98091007;0,09735405
0,98107391;0,09735405
0,98123775;0,09735405
0,98140159;0,09735405
0,98156543;0,00762963
0,98172927;0,00762963
0,98189311;0,09735405
0,98205695;0,00762963
0,98222079;0,00762963
0,98238463;0,00762963
0,98254847;0,00762963
0,98271231;0,00762963
0,98287615;0,00762963
0,98303999;0,00762963
0,98320383;0,00762963
0,98336767;0,00762963
0,98353151;0,00762963
0,98369535;0,00762963
0,98385919;0,00762963
0,98402303;0,00762963
0,98418687;0,00762963
0,98435071;0,00762963
0,98451455;0,00762963
0,98467839;0,00762963
0,98484223;0,00762963
0,98500607;0,00762963
0,98516991;0,00762963
0,98533375;0,00762963
0,98549759;0,00762963
0,98566143;0,00762963
0,98582527;-0,08209479
0,98598911;-0,08209479
0,98615295;-0,08209479
0,98631679;-0,08209479
0,98648063;-0,08209479
0,98664447;-0,08209479
0,98680831;-0,08209479
0,98697215;-0,08209479
0,98713599;-0,08209479
0,98729983;-0,08209479
0,98746367;-0,08209479
0,98762751;-0,08209479
0,98779135;-0,08209479
0,98795519;-0,08209479
0,98811903;-0,08209479
0,98828287;-0,08209479
0,98844671;-0,08209479
0,98861055;-0,08209479
0,98877439;-0,08209479
0,98893823;-0,08209479
0,98910207;-0,08209479
0,98926591;-0,08209479
0,98942975;-0,08209479
0,98959359;-0,08209479
0,98975743;-0,08209479
0,98992127;-0,08209479
0,99008511;-0,08209479
0,99024895;-0,08209479
0,99041279;-0,08209479
0,99057663;0,00762963
0,99074047;-0,08209479
0,99090431;0,00762963
0,99106815;-0,08209479
0,99123199;0,00762963
0,99139583;0,00762963
0,99155967;0,00762963
0,99172351;0,00762963
0,99188735;0,00762963
0,99205119;0,18707850
0,99221503;0,36652730
0,99237887;0,72573020
0,99254271;1,17496300
0,99270655;1,62389000
0,99287039;2,07281700
0,99303423;2,52174400
0,99319807;2,97097700
0,99336191;3,41990400
0,99352575;3,86883100
0,99368959;4,31775900
0,99385343;4,85671600
0,99401727;5,21591900
0,99418111;5,48539700
0,99434495;5,57512100
0,99450879;5,66484600
0,99467263;5,66484600
0,99483647;5,66484600
0,99500031;5,75457000
0,99516415;5,75457000
0,99532799;5,66484600
0,99549183;5,75457000
0,99565567;5,75457000
0,99581951;5,75457000
0,99598335;5,75457000
0,99614719;5,75457000
0,99631103;5,75457000
0,99647487;5,75457000
0,99663871;5,75457000
0,99680255;5,75457000
0,99696639;5,75457000
0,99713023;5,75457000
0,99729407;5,75457000
0,99745791;5,75457000
0,99762175;5,75457000
0,99778559;5,75457000
0,99794943;5,75457000
0,99811327;5,75457000
0,99827711;5,75457000
0,99844095;5,75457000
0,99860479;5,66484600
0,99876863;5,75457000
0,99893247;5,75457000
0,99909631;5,75457000
0,99926015;5,75457000
0,99942399;5,75457000
0,99958783;5,66484600
0,99975167;5,75457000
0,99991551;5,75457000
1,00007935;5,75457000
1,00024319;5,75457000
1,00040703;5,75457000
1,00057087;5,66484600
