Temps;Canal A
(s);(V)

0,00000000;5,48539700
0,00016384;5,30564300
0,00032768;4,94644000
0,00049152;4,67696100
0,00065536;4,40778800
0,00081920;4,04858500
0,00098304;3,77910700
0,00114688;3,50962900
0,00131072;3,15042600
0,00147456;2,79122300
0,00163840;2,43202000
0,00180224;2,07281700
0,00196608;1,71361400
0,00212992;1,35441100
0,00229376;0,99520860
0,00245760;0,72573020
0,00262144;0,36652730
0,00278528;0,27680290
0,00294912;0,18707850
0,00311296;0,09735405
0,00327680;0,09735405
0,00344064;0,00762963
0,00360448;0,00762963
0,00376832;0,00762963
0,00393216;0,00762963
0,00409600;-0,08209479
0,00425984;0,00762963
0,00442368;0,00762963
0,00458752;0,00762963
0,00475136;0,00762963
0,00491520;0,00762963
0,00507904;0,00762963
0,00524288;0,00762963
0,00540672;0,00762963
0,00557056;0,00762963
0,00573440;0,00762963
0,00589824;0,00762963
0,00606208;0,00762963
0,00622592;0,00762963
0,00638976;0,00762963
0,00655360;0,00762963
0,00671744;0,00762963
0,00688128;0,00762963
0,00704512;0,00762963
0,00720896;-0,08209479
0,00737280;0,00762963
0,00753664;-0,08209479
0,00770048;0,00762963
0,00786432;0,00762963
0,00802816;0,00762963
0,00819200;0,00762963
0,00835584;-0,08209479
0,00851968;0,00762963
0,00868352;0,09735405
0,00884736;0,09735405
0,00901120;0,09735405
0,00917504;0,09735405
0,00933888;0,09735405
0,00950272;0,00762963
0,00966656;0,09735405
0,00983040;0,00762963
0,00999424;0,00762963
0,01015808;0,00762963
0,01032192;0,00762963
0,01048576;0,09735405
0,01064960;0,00762963
0,01081344;0,00762963
0,01097728;0,00762963
0,01114112;0,00762963
0,01130496;0,00762963
0,01146880;0,00762963
0,01163264;0,00762963
0,01179648;0,00762963
0,01196032;0,00762963
0,01212416;0,00762963
0,01228800;0,00762963
0,01245184;0,00762963
0,01261568;0,00762963
0,01277952;0,00762963
0,01294336;0,00762963
0,01310720;0,00762963
0,01327104;-0,08209479
0,01343488;0,00762963
0,01359872;0,00762963
0,01376256;0,00762963
0,01392640;0,00762963
0,01409024;-0,08209479
0,01425408;0,00762963
0,01441792;-0,08209479
0,01458176;-0,08209479
0,01474560;-0,08209479
0,01490944;-0,08209479
0,01507328;-0,08209479
0,01523712;-0,08209479
0,01540096;-0,08209479
0,01556480;-0,08209479
0,01572864;-0,08209479
0,01589248;-0,08209479
0,01605632;-0,08209479
0,01622016;-0,08209479
0,01638400;-0,08209479
0,01654784;-0,08209479
0,01671168;-0,08209479
0,01687552;-0,17181920
0,01703936;-0,08209479
0,01720320;-0,08209479
0,01736704;-0,08209479
0,01753088;-0,08209479
0,01769472;-0,17181920
0,01785856;-0,17181920
0,01802240;-0,17181920
0,01818624;-0,08209479
0,01835008;-0,08209479
0,01851392;-0,08209479
0,01867776;-0,17181920
0,01884160;-0,08209479
0,01900544;-0,08209479
0,01916928;0,00762963
0,01933312;0,00762963
0,01949696;0,00762963
0,01966080;0,00762963
0,01982464;0,00762963
0,01998848;0,00762963
0,02015232;0,00762963
0,02031616;0,00762963
0,02048000;0,09735405
0,02064384;0,27680290
0,02080768;0,72573020
0,02097152;1,08493300
0,02113536;1,53416600
0,02129920;1,98309300
0,02146304;2,34229600
0,02162688;2,79122300
0,02179072;3,33018000
0,02195456;3,77910700
0,02211840;4,22803400
0,02228224;4,67696100
0,02244608;5,12619400
0,02260992;5,39536700
0,02277376;5,57512100
0,02293760;5,66484600
0,02310144;5,66484600
0,02326528;5,66484600
0,02342912;5,75457000
0,02359296;5,75457000
0,02375680;5,75457000
0,02392064;5,75457000
0,02408448;5,66484600
0,02424832;5,75457000
0,02441216;5,66484600
0,02457600;5,75457000
0,02473984;5,75457000
0,02490368;5,75457000
0,02506752;5,75457000
0,02523136;5,75457000
0,02539520;5,75457000
0,02555904;5,75457000
0,02572288;5,75457000
0,02588672;5,75457000
0,02605056;5,75457000
0,02621440;5,75457000
0,02637824;5,66484600
0,02654208;5,75457000
0,02670592;5,75457000
0,02686976;5,75457000
0,02703360;5,75457000
0,02719744;5,75457000
0,02736128;5,75457000
0,02752512;5,75457000
0,02768896;5,75457000
0,02785280;5,75457000
0,02801664;5,75457000
0,02818048;5,75457000
0,02834432;5,75457000
0,02850816;5,75457000
0,02867200;5,75457000
0,02883584;5,75457000
0,02899968;5,75457000
0,02916352;5,75457000
0,02932736;5,66484600
0,02949120;5,75457000
0,02965504;5,75457000
0,02981888;5,75457000
0,02998272;5,75457000
0,03014656;5,75457000
0,03031040;5,75457000
0,03047424;5,75457000
0,03063808;5,75457000
0,03080192;5,75457000
0,03096576;5,75457000
0,03112960;5,75457000
0,03129344;5,75457000
0,03145728;5,75457000
0,03162112;5,75457000
0,03178496;5,75457000
0,03194880;5,75457000
0,03211264;5,66484600
0,03227648;5,75457000
0,03244032;5,66484600
0,03260416;5,75457000
0,03276800;5,75457000
0,03293184;5,75457000
0,03309568;5,75457000
0,03325952;5,75457000
0,03342336;5,66484600
0,03358720;5,66484600
0,03375104;5,66484600
0,03391488;5,66484600
0,03407872;5,66484600
0,03424256;5,57512100
0,03440640;5,48539700
0,03457024;5,30564300
0,03473408;4,94644000
0,03489792;4,67696100
0,03506176;4,31775900
0,03522560;4,04858500
0,03538944;3,77910700
0,03555328;3,41990400
0,03571712;3,06070100
0,03588096;2,70149900
0,03604480;2,34229600
0,03620864;2,07281700
0,03637248;1,71361400
0,03653632;1,26468700
0,03670016;0,99520860
0,03686400;0,63600580
0,03702784;0,36652730
0,03719168;0,27680290
0,03735552;0,18707850
0,03751936;0,09735405
0,03768320;0,00762963
0,03784704;0,00762963
0,03801088;0,00762963
0,03817472;0,00762963
0,03833856;0,00762963
0,03850240;0,00762963
0,03866624;0,00762963
0,03883008;0,00762963
0,03899392;0,00762963
0,03915776;0,00762963
0,03932160;0,00762963
0,03948544;0,00762963
0,03964928;0,00762963
0,03981312;0,00762963
0,03997696;0,00762963
0,04014080;0,00762963
0,04030464;0,00762963
0,04046848;0,00762963
0,04063232;0,00762963
0,04079616;0,00762963
0,04096000;0,00762963
0,04112384;0,00762963
0,04128768;-0,08209479
0,04145152;-0,08209479
0,04161536;0,00762963
0,04177920;0,00762963
0,04194304;0,00762963
0,04210688;0,00762963
0,04227072;0,00762963
0,04243456;0,00762963
0,04259840;0,00762963
0,04276224;0,00762963
0,04292608;0,00762963
0,04308992;0,00762963
0,04325376;0,00762963
0,04341760;0,00762963
0,04358144;0,00762963
0,04374528;0,00762963
0,04390912;0,09735405
0,04407296;0,09735405
0,04423680;0,00762963
0,04440064;0,09735405
0,04456448;0,00762963
0,04472832;0,00762963
0,04489216;0,00762963
0,04505600;0,09735405
0,04521984;0,09735405
0,04538368;0,00762963
0,04554752;0,00762963
0,04571136;0,00762963
0,04587520;0,00762963
0,04603904;0,00762963
0,04620288;0,00762963
0,04636672;0,00762963
0,04653056;0,00762963
0,04669440;0,00762963
0,04685824;0,00762963
0,04702208;0,00762963
0,04718592;0,00762963
0,04734976;0,00762963
0,04751360;0,00762963
0,04767744;0,00762963
0,04784128;0,00762963
0,04800512;0,00762963
0,04816896;0,00762963
0,04833280;-0,08209479
0,04849664;-0,08209479
0,04866048;0,00762963
0,04882432;0,00762963
0,04898816;-0,08209479
0,04915200;-0,08209479
0,04931584;-0,08209479
0,04947968;-0,08209479
0,04964352;-0,08209479
0,04980736;-0,08209479
0,04997120;-0,08209479
0,05013504;-0,08209479
0,05029888;-0,08209479
0,05046272;-0,08209479
0,05062656;-0,08209479
0,05079040;-0,08209479
0,05095424;-0,08209479
0,05111808;-0,08209479
0,05128192;-0,08209479
0,05144576;-0,08209479
0,05160960;-0,08209479
0,05177344;-0,08209479
0,05193728;-0,08209479
0,05210112;-0,08209479
0,05226496;-0,17181920
0,05242880;-0,08209479
0,05259264;-0,08209479
0,05275648;-0,08209479
0,05292032;-0,08209479
0,05308416;-0,08209479
0,05324800;-0,08209479
0,05341184;-0,08209479
0,05357568;-0,08209479
0,05373952;-0,08209479
0,05390336;-0,08209479
0,05406720;-0,08209479
0,05423104;0,00762963
0,05439488;0,00762963
0,05455872;0,00762963
0,05472256;0,00762963
0,05488640;0,00762963
0,05505024;0,00762963
0,05521408;0,00762963
0,05537792;0,09735405
0,05554176;0,27680290
0,05570560;0,63600580
0,05586944;0,99520860
0,05603328;1,35441100
0,05619712;1,89336800
0,05636096;2,25257100
0,05652480;2,70149900
0,05668864;3,15042600
0,05685248;3,68938300
0,05701632;4,13831000
0,05718016;4,58723700
0,05734400;5,03616400
0,05750784;5,39536700
0,05767168;5,57512100
0,05783552;5,57512100
0,05799936;5,66484600
0,05816320;5,66484600
0,05832704;5,66484600
0,05849088;5,66484600
0,05865472;5,75457000
0,05881856;5,75457000
0,05898240;5,75457000
0,05914624;5,75457000
0,05931008;5,75457000
0,05947392;5,75457000
0,05963776;5,75457000
0,05980160;5,75457000
0,05996544;5,75457000
0,06012928;5,75457000
0,06029312;5,75457000
0,06045696;5,75457000
0,06062080;5,75457000
0,06078464;5,75457000
0,06094848;5,75457000
0,06111232;5,66484600
0,06127616;5,75457000
0,06144000;5,66484600
0,06160384;5,75457000
0,06176768;5,75457000
0,06193152;5,75457000
0,06209536;5,66484600
0,06225920;5,75457000
0,06242304;5,75457000
0,06258688;5,75457000
0,06275072;5,75457000
0,06291456;5,75457000
0,06307840;5,75457000
0,06324224;5,75457000
0,06340608;5,75457000
0,06356992;5,75457000
0,06373376;5,66484600
0,06389760;5,75457000
0,06406144;5,75457000
0,06422528;5,75457000
0,06438912;5,75457000
0,06455296;5,75457000
0,06471680;5,75457000
0,06488064;5,75457000
0,06504448;5,75457000
0,06520832;5,75457000
0,06537216;5,75457000
0,06553600;5,75457000
0,06569984;5,75457000
0,06586368;5,75457000
0,06602752;5,75457000
0,06619136;5,75457000
0,06635520;5,75457000
0,06651904;5,75457000
0,06668288;5,75457000
0,06684672;5,75457000
0,06701056;5,75457000
0,06717440;5,75457000
0,06733824;5,75457000
0,06750208;5,75457000
0,06766592;5,75457000
0,06782976;5,75457000
0,06799360;5,75457000
0,06815744;5,66484600
0,06832128;5,75457000
0,06848512;5,75457000
0,06864896;5,75457000
0,06881280;5,66484600
0,06897664;5,66484600
0,06914048;5,57512100
0,06930432;5,48539700
0,06946816;5,30564300
0,06963200;4,94644000
0,06979584;4,67696100
0,06995968;4,31775900
0,07012352;4,04858500
0,07028736;3,68938300
0,07045120;3,41990400
0,07061504;3,06070100
0,07077888;2,70149900
0,07094272;2,34229600
0,07110656;1,98309300
0,07127040;1,62389000
0,07143424;1,26468700
0,07159808;0,90548420
0,07176192;0,63600580
0,07192576;0,36652730
0,07208960;0,18707850
0,07225344;0,09735405
0,07241728;0,09735405
0,07258112;0,09735405
0,07274496;0,00762963
0,07290880;0,00762963
0,07307264;0,00762963
0,07323648;0,00762963
0,07340032;0,00762963
0,07356416;0,00762963
0,07372800;0,00762963
0,07389184;0,00762963
0,07405568;0,00762963
0,07421952;0,00762963
0,07438336;0,00762963
0,07454720;0,00762963
0,07471104;-0,08209479
0,07487488;0,00762963
0,07503872;0,00762963
0,07520256;0,00762963
0,07536640;-0,08209479
0,07553024;0,00762963
0,07569408;0,00762963
0,07585792;0,00762963
0,07602176;0,00762963
0,07618560;0,00762963
0,07634944;0,00762963
0,07651328;0,00762963
0,07667712;0,00762963
0,07684096;0,00762963
0,07700480;0,00762963
0,07716864;0,00762963
0,07733248;0,00762963
0,07749632;0,09735405
0,07766016;0,09735405
0,07782400;0,09735405
0,07798784;0,09735405
0,07815168;0,00762963
0,07831552;0,00762963
0,07847936;0,00762963
0,07864320;0,00762963
0,07880704;0,09735405
0,07897088;0,00762963
0,07913472;0,00762963
0,07929856;0,09735405
0,07946240;0,00762963
0,07962624;0,00762963
0,07979008;0,00762963
0,07995392;0,00762963
0,08011776;0,00762963
0,08028160;0,00762963
0,08044544;0,00762963
0,08060928;0,00762963
0,08077312;0,00762963
0,08093696;0,00762963
0,08110080;0,00762963
0,08126464;0,00762963
0,08142848;0,00762963
0,08159232;0,00762963
0,08175616;0,00762963
0,08192000;0,00762963
0,08208384;0,00762963
0,08224768;0,00762963
0,08241152;0,00762963
0,08257536;0,00762963
0,08273920;0,00762963
0,08290304;0,00762963
0,08306688;-0,08209479
0,08323072;0,00762963
0,08339456;-0,08209479
0,08355840;0,00762963
0,08372224;0,00762963
0,08388608;0,00762963
0,08404992;0,00762963
0,08421376;-0,08209479
0,08437760;-0,08209479
0,08454144;0,00762963
0,08470528;-0,08209479
0,08486912;-0,08209479
0,08503296;-0,08209479
0,08519680;-0,08209479
0,08536064;-0,08209479
0,08552448;-0,08209479
0,08568832;-0,08209479
0,08585216;-0,08209479
0,08601600;-0,08209479
0,08617984;-0,08209479
0,08634368;-0,08209479
0,08650752;-0,08209479
0,08667136;-0,08209479
0,08683520;-0,08209479
0,08699904;-0,08209479
0,08716288;-0,08209479
0,08732672;-0,08209479
0,08749056;0,00762963
0,08765440;0,00762963
0,08781824;0,00762963
0,08798208;0,00762963
0,08814592;0,00762963
0,08830976;0,00762963
0,08847360;0,00762963
0,08863744;0,00762963
0,08880128;0,00762963
0,08896512;0,09735405
0,08912896;0,36652730
0,08929280;0,72573020
0,08945664;1,17496300
0,08962048;1,62389000
0,08978432;1,98309300
0,08994816;2,43202000
0,09011200;2,88094700
0,09027584;3,41990400
0,09043968;3,86883100
0,09060352;4,31775900
0,09076736;4,76699100
0,09093120;5,21591900
0,09109504;5,39536700
0,09125888;5,57512100
0,09142272;5,66484600
0,09158656;5,66484600
0,09175040;5,75457000
0,09191424;5,75457000
0,09207808;5,75457000
0,09224192;5,75457000
0,09240576;5,75457000
0,09256960;5,75457000
0,09273344;5,75457000
0,09289728;5,75457000
0,09306112;5,75457000
0,09322496;5,75457000
0,09338880;5,75457000
0,09355264;5,75457000
0,09371648;5,75457000
0,09388032;5,75457000
0,09404416;5,75457000
0,09420800;5,75457000
0,09437184;5,75457000
0,09453568;5,75457000
0,09469952;5,75457000
0,09486336;5,75457000
0,09502720;5,75457000
0,09519104;5,75457000
0,09535488;5,75457000
0,09551872;5,75457000
0,09568256;5,75457000
0,09584640;5,75457000
0,09601024;5,75457000
0,09617408;5,66484600
0,09633792;5,75457000
0,09650176;5,75457000
0,09666560;5,75457000
0,09682944;5,75457000
0,09699328;5,75457000
0,09715712;5,75457000
0,09732096;5,66484600
0,09748480;5,75457000
0,09764864;5,75457000
0,09781248;5,75457000
0,09797632;5,75457000
0,09814016;5,75457000
0,09830400;5,75457000
0,09846784;5,75457000
0,09863168;5,75457000
0,09879552;5,75457000
0,09895936;5,66484600
0,09912320;5,66484600
0,09928704;5,75457000
0,09945088;5,75457000
0,09961472;5,75457000
0,09977856;5,75457000
0,09994240;5,75457000
0,10010624;5,75457000
0,10027008;5,75457000
0,10043392;5,75457000
0,10059776;5,75457000
0,10076160;5,75457000
0,10092544;5,75457000
0,10108928;5,66484600
0,10125312;5,75457000
0,10141696;5,75457000
0,10158080;5,66484600
0,10174464;5,66484600
0,10190848;5,75457000
0,10207232;5,75457000
0,10223616;5,75457000
0,10240000;5,75457000
0,10256384;5,66484600
0,10272768;5,66484600
0,10289152;5,48539700
0,10305536;5,21591900
0,10321920;4,94644000
0,10338304;4,67696100
0,10354688;4,31775900
0,10371072;4,04858500
0,10387456;3,68938300
0,10403840;3,41990400
0,10420224;3,06070100
0,10436608;2,70149900
0,10452992;2,43202000
0,10469376;1,98309300
0,10485760;1,71361400
0,10502144;1,26468700
0,10518528;0,90548420
0,10534912;0,63600580
0,10551296;0,36652730
0,10567680;0,18707850
0,10584064;0,18707850
0,10600448;0,09735405
0,10616832;0,00762963
0,10633216;0,00762963
0,10649600;0,00762963
0,10665984;0,00762963
0,10682368;0,00762963
0,10698752;0,00762963
0,10715136;0,00762963
0,10731520;0,00762963
0,10747904;0,00762963
0,10764288;0,00762963
0,10780672;0,00762963
0,10797056;0,00762963
0,10813440;0,00762963
0,10829824;0,00762963
0,10846208;0,00762963
0,10862592;0,00762963
0,10878976;-0,08209479
0,10895360;0,00762963
0,10911744;0,00762963
0,10928128;0,00762963
0,10944512;0,00762963
0,10960896;0,00762963
0,10977280;-0,08209479
0,10993664;0,00762963
0,11010048;0,00762963
0,11026432;0,00762963
0,11042816;0,00762963
0,11059200;0,00762963
0,11075584;0,00762963
0,11091968;0,00762963
0,11108352;0,00762963
0,11124736;0,00762963
0,11141120;0,00762963
0,11157504;0,09735405
0,11173888;0,00762963
0,11190272;0,09735405
0,11206656;0,00762963
0,11223040;0,00762963
0,11239424;0,00762963
0,11255808;0,00762963
0,11272192;0,09735405
0,11288576;0,00762963
0,11304960;0,00762963
0,11321344;0,00762963
0,11337728;0,00762963
0,11354112;0,00762963
0,11370496;0,00762963
0,11386880;0,00762963
0,11403264;0,00762963
0,11419648;0,00762963
0,11436032;0,00762963
0,11452416;0,00762963
0,11468800;0,00762963
0,11485184;0,00762963
0,11501568;0,00762963
0,11517952;0,00762963
0,11534336;0,00762963
0,11550720;0,00762963
0,11567104;0,00762963
0,11583488;0,00762963
0,11599872;0,00762963
0,11616256;0,00762963
0,11632640;0,00762963
0,11649024;0,00762963
0,11665408;0,00762963
0,11681792;-0,08209479
0,11698176;0,00762963
0,11714560;0,00762963
0,11730944;0,00762963
0,11747328;-0,08209479
0,11763712;-0,08209479
0,11780096;-0,08209479
0,11796480;-0,08209479
0,11812864;-0,08209479
0,11829248;-0,08209479
0,11845632;-0,08209479
0,11862016;-0,08209479
0,11878400;-0,08209479
0,11894784;-0,08209479
0,11911168;-0,08209479
0,11927552;-0,08209479
0,11943936;-0,08209479
0,11960320;-0,08209479
0,11976704;-0,08209479
0,11993088;-0,08209479
0,12009472;-0,08209479
0,12025856;-0,08209479
0,12042240;-0,08209479
0,12058624;-0,08209479
0,12075008;-0,08209479
0,12091392;-0,08209479
0,12107776;-0,08209479
0,12124160;-0,08209479
0,12140544;-0,08209479
0,12156928;-0,08209479
0,12173312;-0,08209479
0,12189696;-0,08209479
0,12206080;-0,08209479
0,12222464;-0,08209479
0,12238848;-0,08209479
0,12255232;0,00762963
0,12271616;0,00762963
0,12288000;0,00762963
0,12304384;0,00762963
0,12320768;0,00762963
0,12337152;0,18707850
0,12353536;0,36652730
0,12369920;0,72573020
0,12386304;1,08493300
0,12402688;1,62389000
0,12419072;1,98309300
0,12435456;2,43202000
0,12451840;2,88094700
0,12468224;3,41990400
0,12484608;3,86883100
0,12500992;4,31775900
0,12517376;4,76699100
0,12533760;5,21591900
0,12550144;5,39536700
0,12566528;5,57512100
0,12582912;5,66484600
0,12599296;5,66484600
0,12615680;5,66484600
0,12632064;5,75457000
0,12648448;5,75457000
0,12664832;5,75457000
0,12681216;5,75457000
0,12697600;5,75457000
0,12713984;5,75457000
0,12730368;5,75457000
0,12746752;5,75457000
0,12763136;5,75457000
0,12779520;5,66484600
0,12795904;5,75457000
0,12812288;5,75457000
0,12828672;5,75457000
0,12845056;5,75457000
0,12861440;5,75457000
0,12877824;5,75457000
0,12894208;5,75457000
0,12910592;5,75457000
0,12926976;5,75457000
0,12943360;5,75457000
0,12959744;5,75457000
0,12976128;5,66484600
0,12992512;5,75457000
0,13008896;5,75457000
0,13025280;5,75457000
0,13041664;5,75457000
0,13058048;5,75457000
0,13074432;5,75457000
0,13090816;5,75457000
0,13107200;5,75457000
0,13123584;5,66484600
0,13139968;5,66484600
0,13156352;5,75457000
0,13172736;5,66484600
0,13189120;5,75457000
0,13205504;5,75457000
0,13221888;5,75457000
0,13238272;5,66484600
0,13254656;5,66484600
0,13271040;5,75457000
0,13287424;5,66484600
0,13303808;5,75457000
0,13320192;5,75457000
0,13336576;5,75457000
0,13352960;5,75457000
0,13369344;5,66484600
0,13385728;5,75457000
0,13402112;5,75457000
0,13418496;5,75457000
0,13434880;5,75457000
0,13451264;5,75457000
0,13467648;5,75457000
0,13484032;5,75457000
0,13500416;5,75457000
0,13516800;5,75457000
0,13533184;5,75457000
0,13549568;5,75457000
0,13565952;5,75457000
0,13582336;5,75457000
0,13598720;5,75457000
0,13615104;5,66484600
0,13631488;5,75457000
0,13647872;5,66484600
0,13664256;5,66484600
0,13680640;5,66484600
0,13697024;5,66484600
0,13713408;5,57512100
0,13729792;5,39536700
0,13746176;5,21591900
0,13762560;4,85671600
0,13778944;4,58723700
0,13795328;4,22803400
0,13811712;3,95855600
0,13828096;3,59935300
0,13844480;3,24015000
0,13860864;2,97097700
0,13877248;2,61177400
0,13893632;2,25257100
0,13910016;1,89336800
0,13926400;1,62389000
0,13942784;1,17496300
0,13959168;0,81575980
0,13975552;0,54628130
0,13991936;0,27680290
0,14008320;0,18707850
0,14024704;0,09735405
0,14041088;0,09735405
0,14057472;0,00762963
0,14073856;0,00762963
0,14090240;0,00762963
0,14106624;0,00762963
0,14123008;0,00762963
0,14139392;0,00762963
0,14155776;0,00762963
0,14172160;-0,08209479
0,14188544;-0,08209479
0,14204928;0,00762963
0,14221312;0,00762963
0,14237696;0,00762963
0,14254080;0,00762963
0,14270464;0,00762963
0,14286848;0,00762963
0,14303232;0,00762963
0,14319616;0,00762963
0,14336000;0,00762963
0,14352384;0,00762963
0,14368768;-0,08209479
0,14385152;0,00762963
0,14401536;0,00762963
0,14417920;0,00762963
0,14434304;0,00762963
0,14450688;0,00762963
0,14467072;0,00762963
0,14483456;0,00762963
0,14499840;0,00762963
0,14516224;0,00762963
0,14532608;0,00762963
0,14548992;0,00762963
0,14565376;0,00762963
0,14581760;0,00762963
0,14598144;0,00762963
0,14614528;-0,08209479
0,14630912;0,00762963
0,14647296;0,00762963
0,14663680;0,00762963
0,14680064;0,09735405
0,14696448;0,00762963
0,14712832;0,00762963
0,14729216;0,00762963
0,14745600;0,00762963
0,14761984;0,09735405
0,14778368;0,00762963
0,14794752;0,09735405
0,14811136;0,00762963
0,14827520;0,00762963
0,14843904;0,00762963
0,14860288;0,00762963
0,14876672;0,00762963
0,14893056;0,00762963
0,14909440;0,00762963
0,14925824;0,00762963
0,14942208;0,00762963
0,14958592;0,00762963
0,14974976;0,00762963
0,14991360;0,00762963
0,15007744;0,00762963
0,15024128;0,00762963
0,15040512;0,00762963
0,15056896;0,00762963
0,15073280;0,00762963
0,15089664;0,00762963
0,15106048;0,00762963
0,15122432;0,00762963
0,15138816;-0,08209479
0,15155200;0,00762963
0,15171584;0,00762963
0,15187968;-0,08209479
0,15204352;-0,08209479
0,15220736;-0,08209479
0,15237120;-0,08209479
0,15253504;-0,08209479
0,15269888;-0,08209479
0,15286272;-0,08209479
0,15302656;-0,08209479
0,15319040;-0,08209479
0,15335424;-0,08209479
0,15351808;-0,08209479
0,15368192;-0,08209479
0,15384576;-0,08209479
0,15400960;-0,08209479
0,15417344;-0,08209479
0,15433728;-0,08209479
0,15450112;-0,08209479
0,15466496;-0,08209479
0,15482880;-0,08209479
0,15499264;-0,08209479
0,15515648;-0,08209479
0,15532032;-0,08209479
0,15548416;-0,08209479
0,15564800;-0,08209479
0,15581184;-0,08209479
0,15597568;-0,17181920
0,15613952;-0,08209479
0,15630336;-0,08209479
0,15646720;-0,08209479
0,15663104;-0,08209479
0,15679488;-0,08209479
0,15695872;0,00762963
0,15712256;0,00762963
0,15728640;0,00762963
0,15745024;0,00762963
0,15761408;0,00762963
0,15777792;0,00762963
0,15794176;0,00762963
0,15810560;0,00762963
0,15826944;0,09735405
0,15843328;0,36652730
0,15859712;0,72573020
0,15876096;1,08493300
0,15892480;1,53416600
0,15908864;1,98309300
0,15925248;2,43202000
0,15941632;2,88094700
0,15958016;3,33018000
0,15974400;3,77910700
0,15990784;4,22803400
0,16007168;4,67696100
0,16023552;5,12619400
0,16039936;5,39536700
0,16056320;5,57512100
0,16072704;5,66484600
0,16089088;5,66484600
0,16105472;5,75457000
0,16121856;5,75457000
0,16138240;5,75457000
0,16154624;5,75457000
0,16171008;5,75457000
0,16187392;5,75457000
0,16203776;5,75457000
0,16220160;5,75457000
0,16236544;5,75457000
0,16252928;5,75457000
0,16269312;5,75457000
0,16285696;5,75457000
0,16302080;5,75457000
0,16318464;5,75457000
0,16334848;5,75457000
0,16351232;5,75457000
0,16367616;5,75457000
0,16384000;5,75457000
0,16400384;5,75457000
0,16416768;5,75457000
0,16433152;5,75457000
0,16449536;5,75457000
0,16465920;5,75457000
0,16482304;5,75457000
0,16498688;5,75457000
0,16515072;5,75457000
0,16531456;5,75457000
0,16547840;5,75457000
0,16564224;5,75457000
0,16580608;5,75457000
0,16596992;5,75457000
0,16613376;5,75457000
0,16629760;5,75457000
0,16646144;5,66484600
0,16662528;5,66484600
0,16678912;5,75457000
0,16695296;5,75457000
0,16711680;5,66484600
0,16728064;5,75457000
0,16744448;5,75457000
0,16760832;5,75457000
0,16777216;5,75457000
0,16793600;5,75457000
0,16809984;5,75457000
0,16826368;5,75457000
0,16842752;5,75457000
0,16859136;5,75457000
0,16875520;5,66484600
0,16891904;5,75457000
0,16908288;5,66484600
0,16924672;5,75457000
0,16941056;5,75457000
0,16957440;5,75457000
0,16973824;5,75457000
0,16990208;5,75457000
0,17006592;5,75457000
0,17022976;5,75457000
0,17039360;5,75457000
0,17055744;5,75457000
0,17072128;5,75457000
0,17088512;5,75457000
0,17104896;5,75457000
0,17121280;5,75457000
0,17137664;5,75457000
0,17154048;5,66484600
0,17170432;5,66484600
0,17186816;5,66484600
0,17203200;5,57512100
0,17219584;5,39536700
0,17235968;5,21591900
0,17252352;4,85671600
0,17268736;4,58723700
0,17285120;4,22803400
0,17301504;3,95855600
0,17317888;3,59935300
0,17334272;3,24015000
0,17350656;2,97097700
0,17367040;2,61177400
0,17383424;2,25257100
0,17399808;1,89336800
0,17416192;1,53416600
0,17432576;1,17496300
0,17448960;0,81575980
0,17465344;0,54628130
0,17481728;0,27680290
0,17498112;0,18707850
0,17514496;0,09735405
0,17530880;0,00762963
0,17547264;0,00762963
0,17563648;0,00762963
0,17580032;0,00762963
0,17596416;0,00762963
0,17612800;0,00762963
0,17629184;0,00762963
0,17645568;0,00762963
0,17661952;0,00762963
0,17678336;0,00762963
0,17694720;0,00762963
0,17711104;0,00762963
0,17727488;0,00762963
0,17743872;0,00762963
0,17760256;-0,08209479
0,17776640;0,00762963
0,17793024;-0,08209479
0,17809408;0,00762963
0,17825792;0,00762963
0,17842176;0,00762963
0,17858560;0,00762963
0,17874944;0,00762963
0,17891328;0,00762963
0,17907712;0,00762963
0,17924096;0,00762963
0,17940480;0,00762963
0,17956864;0,00762963
0,17973248;0,00762963
0,17989632;0,00762963
0,18006016;0,00762963
0,18022400;0,00762963
0,18038784;0,00762963
0,18055168;0,00762963
0,18071552;0,00762963
0,18087936;0,09735405
0,18104320;0,09735405
0,18120704;0,00762963
0,18137088;0,00762963
0,18153472;0,00762963
0,18169856;0,00762963
0,18186240;0,09735405
0,18202624;0,00762963
0,18219008;0,00762963
0,18235392;0,00762963
0,18251776;0,09735405
0,18268160;0,00762963
0,18284544;0,00762963
0,18300928;0,00762963
0,18317312;0,00762963
0,18333696;0,00762963
0,18350080;0,00762963
0,18366464;0,00762963
0,18382848;0,00762963
0,18399232;0,00762963
0,18415616;0,00762963
0,18432000;0,00762963
0,18448384;0,00762963
0,18464768;0,00762963
0,18481152;0,00762963
0,18497536;0,00762963
0,18513920;0,00762963
0,18530304;0,00762963
0,18546688;0,00762963
0,18563072;0,00762963
0,18579456;-0,08209479
0,18595840;0,00762963
0,18612224;-0,08209479
0,18628608;-0,08209479
0,18644992;-0,08209479
0,18661376;-0,08209479
0,18677760;-0,08209479
0,18694144;-0,08209479
0,18710528;0,00762963
0,18726912;-0,08209479
0,18743296;-0,08209479
0,18759680;-0,08209479
0,18776064;-0,08209479
0,18792448;-0,08209479
0,18808832;-0,08209479
0,18825216;-0,08209479
0,18841600;-0,08209479
0,18857984;-0,17181920
0,18874368;-0,08209479
0,18890752;-0,08209479
0,18907136;-0,08209479
0,18923520;-0,08209479
0,18939904;-0,08209479
0,18956288;-0,08209479
0,18972672;-0,08209479
0,18989056;-0,08209479
0,19005440;-0,08209479
0,19021824;-0,08209479
0,19038208;-0,08209479
0,19054592;0,00762963
0,19070976;0,00762963
0,19087360;0,00762963
0,19103744;0,00762963
0,19120128;0,00762963
0,19136512;0,00762963
0,19152896;0,00762963
0,19169280;0,00762963
0,19185664;0,18707850
0,19202048;0,45655690
0,19218432;0,81575980
0,19234816;1,26468700
0,19251200;1,62389000
0,19267584;2,07281700
0,19283968;2,52174400
0,19300352;3,06070100
0,19316736;3,50962900
0,19333120;3,95855600
0,19349504;4,40778800
0,19365888;4,85671600
0,19382272;5,21591900
0,19398656;5,48539700
0,19415040;5,57512100
0,19431424;5,66484600
0,19447808;5,66484600
0,19464192;5,75457000
0,19480576;5,75457000
0,19496960;5,75457000
0,19513344;5,75457000
0,19529728;5,75457000
0,19546112;5,75457000
0,19562496;5,66484600
0,19578880;5,75457000
0,19595264;5,75457000
0,19611648;5,75457000
0,19628032;5,75457000
0,19644416;5,66484600
0,19660800;5,75457000
0,19677184;5,75457000
0,19693568;5,66484600
0,19709952;5,75457000
0,19726336;5,75457000
0,19742720;5,75457000
0,19759104;5,75457000
0,19775488;5,66484600
0,19791872;5,75457000
0,19808256;5,75457000
0,19824640;5,75457000
0,19841024;5,66484600
0,19857408;5,75457000
0,19873792;5,75457000
0,19890176;5,75457000
0,19906560;5,66484600
0,19922944;5,75457000
0,19939328;5,75457000
0,19955712;5,75457000
0,19972096;5,66484600
0,19988480;5,75457000
0,20004864;5,75457000
0,20021248;5,75457000
0,20037632;5,75457000
0,20054016;5,66484600
0,20070400;5,75457000
0,20086784;5,66484600
0,20103168;5,66484600
0,20119552;5,75457000
0,20135936;5,75457000
0,20152320;5,75457000
0,20168704;5,75457000
0,20185088;5,75457000
0,20201472;5,75457000
0,20217856;5,75457000
0,20234240;5,75457000
0,20250624;5,66484600
0,20267008;5,75457000
0,20283392;5,75457000
0,20299776;5,75457000
0,20316160;5,75457000
0,20332544;5,75457000
0,20348928;5,66484600
0,20365312;5,75457000
0,20381696;5,75457000
0,20398080;5,75457000
0,20414464;5,75457000
0,20430848;5,75457000
0,20447232;5,75457000
0,20463616;5,75457000
0,20480000;5,75457000
0,20496384;5,75457000
0,20512768;5,75457000
0,20529152;5,66484600
0,20545536;5,66484600
0,20561920;5,57512100
0,20578304;5,39536700
0,20594688;5,21591900
0,20611072;4,85671600
0,20627456;4,58723700
0,20643840;4,22803400
0,20660224;3,95855600
0,20676608;3,59935300
0,20692992;3,33018000
0,20709376;2,97097700
0,20725760;2,61177400
0,20742144;2,34229600
0,20758528;1,89336800
0,20774912;1,53416600
0,20791296;1,17496300
0,20807680;0,90548420
0,20824064;0,54628130
0,20840448;0,27680290
0,20856832;0,18707850
0,20873216;0,09735405
0,20889600;0,09735405
0,20905984;0,00762963
0,20922368;0,00762963
0,20938752;0,00762963
0,20955136;0,00762963
0,20971520;0,00762963
0,20987904;0,00762963
0,21004288;0,00762963
0,21020672;0,00762963
0,21037056;0,00762963
0,21053440;0,00762963
0,21069824;0,00762963
0,21086208;0,00762963
0,21102592;0,00762963
0,21118976;0,00762963
0,21135360;0,00762963
0,21151744;0,00762963
0,21168128;-0,08209479
0,21184512;-0,08209479
0,21200896;0,00762963
0,21217280;0,00762963
0,21233664;0,00762963
0,21250048;0,00762963
0,21266432;-0,08209479
0,21282816;0,00762963
0,21299200;0,00762963
0,21315584;0,00762963
0,21331968;0,00762963
0,21348352;0,00762963
0,21364736;0,00762963
0,21381120;-0,08209479
0,21397504;0,00762963
0,21413888;0,00762963
0,21430272;0,00762963
0,21446656;0,00762963
0,21463040;0,09735405
0,21479424;0,00762963
0,21495808;0,00762963
0,21512192;0,00762963
0,21528576;0,00762963
0,21544960;0,09735405
0,21561344;0,00762963
0,21577728;0,00762963
0,21594112;0,00762963
0,21610496;0,00762963
0,21626880;0,00762963
0,21643264;0,00762963
0,21659648;0,00762963
0,21676032;0,00762963
0,21692416;0,00762963
0,21708800;0,09735405
0,21725184;0,00762963
0,21741568;0,00762963
0,21757952;0,00762963
0,21774336;0,00762963
0,21790720;0,00762963
0,21807104;-0,08209479
0,21823488;0,00762963
0,21839872;0,00762963
0,21856256;0,00762963
0,21872640;0,00762963
0,21889024;0,00762963
0,21905408;0,00762963
0,21921792;-0,08209479
0,21938176;0,00762963
0,21954560;-0,08209479
0,21970944;0,00762963
0,21987328;-0,08209479
0,22003712;-0,08209479
0,22020096;-0,08209479
0,22036480;-0,08209479
0,22052864;-0,08209479
0,22069248;-0,08209479
0,22085632;-0,08209479
0,22102016;-0,08209479
0,22118400;-0,08209479
0,22134784;-0,08209479
0,22151168;-0,08209479
0,22167552;-0,08209479
0,22183936;-0,08209479
0,22200320;-0,08209479
0,22216704;-0,08209479
0,22233088;-0,08209479
0,22249472;-0,08209479
0,22265856;-0,08209479
0,22282240;-0,08209479
0,22298624;-0,08209479
0,22315008;-0,08209479
0,22331392;-0,08209479
0,22347776;-0,08209479
0,22364160;-0,08209479
0,22380544;-0,08209479
0,22396928;-0,17181920
0,22413312;-0,08209479
0,22429696;-0,08209479
0,22446080;-0,17181920
0,22462464;-0,08209479
0,22478848;-0,08209479
0,22495232;-0,08209479
0,22511616;0,00762963
0,22528000;-0,08209479
0,22544384;0,00762963
0,22560768;-0,08209479
0,22577152;0,00762963
0,22593536;0,00762963
0,22609920;0,00762963
0,22626304;0,18707850
0,22642688;0,45655690
0,22659072;0,81575980
0,22675456;1,26468700
0,22691840;1,62389000
0,22708224;2,07281700
0,22724608;2,52174400
0,22740992;3,06070100
0,22757376;3,50962900
0,22773760;3,95855600
0,22790144;4,40778800
0,22806528;4,85671600
0,22822912;5,30564300
0,22839296;5,39536700
0,22855680;5,57512100
0,22872064;5,66484600
0,22888448;5,66484600
0,22904832;5,66484600
0,22921216;5,75457000
0,22937600;5,66484600
0,22953984;5,75457000
0,22970368;5,75457000
0,22986752;5,75457000
0,23003136;5,75457000
0,23019520;5,75457000
0,23035904;5,75457000
0,23052288;5,75457000
0,23068672;5,75457000
0,23085056;5,75457000
0,23101440;5,75457000
0,23117824;5,75457000
0,23134208;5,75457000
0,23150592;5,75457000
0,23166976;5,75457000
0,23183360;5,75457000
0,23199744;5,66484600
0,23216128;5,75457000
0,23232512;5,75457000
0,23248896;5,75457000
0,23265280;5,66484600
0,23281664;5,66484600
0,23298048;5,75457000
0,23314432;5,75457000
0,23330816;5,75457000
0,23347200;5,75457000
0,23363584;5,75457000
0,23379968;5,75457000
0,23396352;5,66484600
0,23412736;5,75457000
0,23429120;5,75457000
0,23445504;5,75457000
0,23461888;5,75457000
0,23478272;5,66484600
0,23494656;5,75457000
0,23511040;5,75457000
0,23527424;5,75457000
0,23543808;5,75457000
0,23560192;5,75457000
0,23576576;5,66484600
0,23592960;5,66484600
0,23609344;5,66484600
0,23625728;5,75457000
0,23642112;5,66484600
0,23658496;5,75457000
0,23674880;5,75457000
0,23691264;5,66484600
0,23707648;5,75457000
0,23724032;5,66484600
0,23740416;5,75457000
0,23756800;5,75457000
0,23773184;5,75457000
0,23789568;5,75457000
0,23805952;5,75457000
0,23822336;5,75457000
0,23838720;5,75457000
0,23855104;5,75457000
0,23871488;5,75457000
0,23887872;5,75457000
0,23904256;5,75457000
0,23920640;5,75457000
0,23937024;5,75457000
0,23953408;5,75457000
0,23969792;5,66484600
0,23986176;5,66484600
0,24002560;5,57512100
0,24018944;5,39536700
0,24035328;5,03616400
0,24051712;4,76699100
0,24068096;4,49751300
0,24084480;4,13831000
0,24100864;3,86883100
0,24117248;3,50962900
0,24133632;3,15042600
0,24150016;2,88094700
0,24166400;2,52174400
0,24182784;2,16254200
0,24199168;1,80333900
0,24215552;1,44413600
0,24231936;1,08493300
0,24248320;0,72573020
0,24264704;0,45655690
0,24281088;0,27680290
0,24297472;0,18707850
0,24313856;0,09735405
0,24330240;0,09735405
0,24346624;0,00762963
0,24363008;0,00762963
0,24379392;0,00762963
0,24395776;0,00762963
0,24412160;0,00762963
0,24428544;0,00762963
0,24444928;0,00762963
0,24461312;0,00762963
0,24477696;0,00762963
0,24494080;0,00762963
0,24510464;0,00762963
0,24526848;0,00762963
0,24543232;0,00762963
0,24559616;0,00762963
0,24576000;0,00762963
0,24592384;0,00762963
0,24608768;0,00762963
0,24625152;0,00762963
0,24641536;0,00762963
0,24657920;0,00762963
0,24674304;-0,08209479
0,24690688;0,00762963
0,24707072;0,00762963
0,24723456;0,00762963
0,24739840;0,00762963
0,24756224;0,00762963
0,24772608;-0,08209479
0,24788992;0,00762963
0,24805376;0,00762963
0,24821760;0,00762963
0,24838144;-0,08209479
0,24854528;0,00762963
0,24870912;0,00762963
0,24887296;0,00762963
0,24903680;0,00762963
0,24920064;0,00762963
0,24936448;0,00762963
0,24952832;0,09735405
0,24969216;0,00762963
0,24985600;0,09735405
0,25001984;0,00762963
0,25018368;0,09735405
0,25034752;0,00762963
0,25051136;0,00762963
0,25067520;0,00762963
0,25083904;0,00762963
0,25100288;0,00762963
0,25116672;0,09735405
0,25133056;0,00762963
0,25149440;0,00762963
0,25165824;0,00762963
0,25182208;0,00762963
0,25198592;0,00762963
0,25214976;0,00762963
0,25231360;0,00762963
0,25247744;0,00762963
0,25264128;0,00762963
0,25280512;0,00762963
0,25296896;0,00762963
0,25313280;0,00762963
0,25329664;0,00762963
0,25346048;0,00762963
0,25362432;0,00762963
0,25378816;0,00762963
0,25395200;-0,08209479
0,25411584;0,00762963
0,25427968;0,00762963
0,25444352;0,00762963
0,25460736;-0,08209479
0,25477120;-0,08209479
0,25493504;-0,08209479
0,25509888;-0,08209479
0,25526272;-0,08209479
0,25542656;-0,08209479
0,25559040;-0,08209479
0,25575424;-0,08209479
0,25591808;-0,08209479
0,25608192;-0,08209479
0,25624576;-0,08209479
0,25640960;-0,08209479
0,25657344;-0,08209479
0,25673728;-0,08209479
0,25690112;-0,08209479
0,25706496;-0,08209479
0,25722880;-0,08209479
0,25739264;-0,08209479
0,25755648;-0,08209479
0,25772032;-0,17181920
0,25788416;-0,08209479
0,25804800;-0,08209479
0,25821184;-0,08209479
0,25837568;-0,08209479
0,25853952;-0,08209479
0,25870336;-0,08209479
0,25886720;-0,08209479
0,25903104;-0,08209479
0,25919488;-0,08209479
0,25935872;-0,08209479
0,25952256;-0,08209479
0,25968640;-0,08209479
0,25985024;0,00762963
0,26001408;0,00762963
0,26017792;0,00762963
0,26034176;0,00762963
0,26050560;0,00762963
0,26066944;0,00762963
0,26083328;0,00762963
0,26099712;0,00762963
0,26116096;0,18707850
0,26132480;0,45655690
0,26148864;0,90548420
0,26165248;1,26468700
0,26181632;1,71361400
0,26198016;2,16254200
0,26214400;2,61177400
0,26230784;3,06070100
0,26247168;3,50962900
0,26263552;3,95855600
0,26279936;4,49751300
0,26296320;4,85671600
0,26312704;5,30564300
0,26329088;5,48539700
0,26345472;5,57512100
0,26361856;5,66484600
0,26378240;5,66484600
0,26394624;5,75457000
0,26411008;5,66484600
0,26427392;5,75457000
0,26443776;5,75457000
0,26460160;5,75457000
0,26476544;5,75457000
0,26492928;5,75457000
0,26509312;5,75457000
0,26525696;5,75457000
0,26542080;5,66484600
0,26558464;5,75457000
0,26574848;5,75457000
0,26591232;5,66484600
0,26607616;5,75457000
0,26624000;5,75457000
0,26640384;5,75457000
0,26656768;5,75457000
0,26673152;5,75457000
0,26689536;5,75457000
0,26705920;5,75457000
0,26722304;5,75457000
0,26738688;5,66484600
0,26755072;5,75457000
0,26771456;5,66484600
0,26787840;5,66484600
0,26804224;5,75457000
0,26820608;5,75457000
0,26836992;5,75457000
0,26853376;5,75457000
0,26869760;5,75457000
0,26886144;5,75457000
0,26902528;5,66484600
0,26918912;5,75457000
0,26935296;5,75457000
0,26951680;5,75457000
0,26968064;5,66484600
0,26984448;5,75457000
0,27000832;5,75457000
0,27017216;5,75457000
0,27033600;5,75457000
0,27049984;5,75457000
0,27066368;5,75457000
0,27082752;5,66484600
0,27099136;5,75457000
0,27115520;5,66484600
0,27131904;5,75457000
0,27148288;5,75457000
0,27164672;5,75457000
0,27181056;5,75457000
0,27197440;5,75457000
0,27213824;5,75457000
0,27230208;5,66484600
0,27246592;5,66484600
0,27262976;5,75457000
0,27279360;5,75457000
0,27295744;5,75457000
0,27312128;5,75457000
0,27328512;5,75457000
0,27344896;5,75457000
0,27361280;5,75457000
0,27377664;5,75457000
0,27394048;5,75457000
0,27410432;5,75457000
0,27426816;5,75457000
0,27443200;5,66484600
0,27459584;5,66484600
0,27475968;5,66484600
0,27492352;5,48539700
0,27508736;5,30564300
0,27525120;5,03616400
0,27541504;4,67696100
0,27557888;4,49751300
0,27574272;4,13831000
0,27590656;3,77910700
0,27607040;3,41990400
0,27623424;3,15042600
0,27639808;2,79122300
0,27656192;2,43202000
0,27672576;2,07281700
0,27688960;1,71361400
0,27705344;1,35441100
0,27721728;0,99520860
0,27738112;0,63600580
0,27754496;0,36652730
0,27770880;0,18707850
0,27787264;0,09735405
0,27803648;0,09735405
0,27820032;0,00762963
0,27836416;0,00762963
0,27852800;0,00762963
0,27869184;0,00762963
0,27885568;0,00762963
0,27901952;0,00762963
0,27918336;0,00762963
0,27934720;0,00762963
0,27951104;0,00762963
0,27967488;-0,08209479
0,27983872;0,00762963
0,28000256;0,00762963
0,28016640;0,00762963
0,28033024;0,00762963
0,28049408;0,00762963
0,28065792;0,00762963
0,28082176;0,00762963
0,28098560;0,00762963
0,28114944;0,00762963
0,28131328;0,00762963
0,28147712;0,00762963
0,28164096;-0,08209479
0,28180480;0,00762963
0,28196864;0,00762963
0,28213248;0,00762963
0,28229632;0,00762963
0,28246016;0,00762963
0,28262400;0,00762963
0,28278784;0,00762963
0,28295168;0,00762963
0,28311552;0,00762963
0,28327936;0,09735405
0,28344320;0,00762963
0,28360704;0,09735405
0,28377088;0,00762963
0,28393472;0,00762963
0,28409856;0,09735405
0,28426240;0,00762963
0,28442624;0,00762963
0,28459008;0,00762963
0,28475392;0,09735405
0,28491776;0,00762963
0,28508160;0,00762963
0,28524544;0,00762963
0,28540928;0,00762963
0,28557312;0,00762963
0,28573696;0,00762963
0,28590080;0,00762963
0,28606464;0,00762963
0,28622848;0,00762963
0,28639232;0,00762963
0,28655616;0,00762963
0,28672000;0,00762963
0,28688384;0,00762963
0,28704768;0,00762963
0,28721152;0,00762963
0,28737536;0,00762963
0,28753920;0,00762963
0,28770304;0,00762963
0,28786688;0,00762963
0,28803072;-0,08209479
0,28819456;0,00762963
0,28835840;0,00762963
0,28852224;0,00762963
0,28868608;0,00762963
0,28884992;0,00762963
0,28901376;0,00762963
0,28917760;-0,08209479
0,28934144;0,00762963
0,28950528;-0,08209479
0,28966912;-0,08209479
0,28983296;-0,08209479
0,28999680;0,00762963
0,29016064;-0,08209479
0,29032448;0,00762963
0,29048832;-0,08209479
0,29065216;-0,08209479
0,29081600;-0,08209479
0,29097984;-0,08209479
0,29114368;-0,08209479
0,29130752;-0,08209479
0,29147136;-0,08209479
0,29163520;-0,08209479
0,29179904;-0,08209479
0,29196288;-0,08209479
0,29212672;-0,08209479
0,29229056;-0,08209479
0,29245440;-0,08209479
0,29261824;-0,08209479
0,29278208;-0,08209479
0,29294592;-0,08209479
0,29310976;0,00762963
0,29327360;0,00762963
0,29343744;0,00762963
0,29360128;0,00762963
0,29376512;-0,08209479
0,29392896;0,00762963
0,29409280;0,00762963
0,29425664;0,00762963
0,29442048;0,00762963
0,29458432;0,09735405
0,29474816;0,27680290
0,29491200;0,63600580
0,29507584;0,99520860
0,29523968;1,44413600
0,29540352;1,89336800
0,29556736;2,34229600
0,29573120;2,79122300
0,29589504;3,24015000
0,29605888;3,77910700
0,29622272;4,13831000
0,29638656;4,67696100
0,29655040;5,03616400
0,29671424;5,39536700
0,29687808;5,57512100
0,29704192;5,57512100
0,29720576;5,66484600
0,29736960;5,66484600
0,29753344;5,75457000
0,29769728;5,75457000
0,29786112;5,75457000
0,29802496;5,75457000
0,29818880;5,75457000
0,29835264;5,75457000
0,29851648;5,75457000
0,29868032;5,75457000
0,29884416;5,75457000
0,29900800;5,75457000
0,29917184;5,66484600
0,29933568;5,75457000
0,29949952;5,75457000
0,29966336;5,75457000
0,29982720;5,75457000
0,29999104;5,75457000
0,30015488;5,66484600
0,30031872;5,75457000
0,30048256;5,75457000
0,30064640;5,75457000
0,30081024;5,75457000
0,30097408;5,66484600
0,30113792;5,75457000
0,30130176;5,75457000
0,30146560;5,75457000
0,30162944;5,75457000
0,30179328;5,75457000
0,30195712;5,75457000
0,30212096;5,66484600
0,30228480;5,66484600
0,30244864;5,66484600
0,30261248;5,75457000
0,30277632;5,75457000
0,30294016;5,75457000
0,30310400;5,75457000
0,30326784;5,75457000
0,30343168;5,66484600
0,30359552;5,75457000
0,30375936;5,75457000
0,30392320;5,75457000
0,30408704;5,75457000
0,30425088;5,75457000
0,30441472;5,75457000
0,30457856;5,66484600
0,30474240;5,75457000
0,30490624;5,66484600
0,30507008;5,75457000
0,30523392;5,66484600
0,30539776;5,75457000
0,30556160;5,75457000
0,30572544;5,75457000
0,30588928;5,75457000
0,30605312;5,75457000
0,30621696;5,75457000
0,30638080;5,75457000
0,30654464;5,75457000
0,30670848;5,75457000
0,30687232;5,75457000
0,30703616;5,75457000
0,30720000;5,75457000
0,30736384;5,66484600
0,30752768;5,75457000
0,30769152;5,66484600
0,30785536;5,75457000
0,30801920;5,75457000
0,30818304;5,66484600
0,30834688;5,66484600
0,30851072;5,48539700
0,30867456;5,30564300
0,30883840;4,94644000
0,30900224;4,67696100
0,30916608;4,40778800
0,30932992;4,13831000
0,30949376;3,77910700
0,30965760;3,41990400
0,30982144;3,15042600
0,30998528;2,79122300
0,31014912;2,43202000
0,31031296;2,07281700
0,31047680;1,71361400
0,31064064;1,35441100
0,31080448;0,99520860
0,31096832;0,72573020
0,31113216;0,45655690
0,31129600;0,27680290
0,31145984;0,09735405
0,31162368;0,09735405
0,31178752;0,00762963
0,31195136;0,00762963
0,31211520;0,00762963
0,31227904;0,00762963
0,31244288;0,00762963
0,31260672;0,00762963
0,31277056;-0,08209479
0,31293440;0,00762963
0,31309824;0,00762963
0,31326208;0,00762963
0,31342592;0,00762963
0,31358976;0,00762963
0,31375360;0,00762963
0,31391744;0,00762963
0,31408128;0,00762963
0,31424512;0,00762963
0,31440896;0,00762963
0,31457280;0,00762963
0,31473664;0,00762963
0,31490048;0,00762963
0,31506432;0,00762963
0,31522816;0,00762963
0,31539200;0,00762963
0,31555584;-0,08209479
0,31571968;0,00762963
0,31588352;0,00762963
0,31604736;0,00762963
0,31621120;0,00762963
0,31637504;0,00762963
0,31653888;0,00762963
0,31670272;-0,08209479
0,31686656;0,00762963
0,31703040;0,00762963
0,31719424;0,09735405
0,31735808;0,09735405
0,31752192;0,09735405
0,31768576;0,09735405
0,31784960;0,09735405
0,31801344;0,00762963
0,31817728;0,00762963
0,31834112;0,00762963
0,31850496;0,00762963
0,31866880;0,09735405
0,31883264;0,09735405
0,31899648;0,00762963
0,31916032;0,00762963
0,31932416;0,00762963
0,31948800;0,00762963
0,31965184;0,00762963
0,31981568;0,00762963
0,31997952;0,00762963
0,32014336;0,00762963
0,32030720;0,00762963
0,32047104;0,00762963
0,32063488;0,00762963
0,32079872;0,00762963
0,32096256;0,00762963
0,32112640;0,00762963
0,32129024;0,00762963
0,32145408;0,00762963
0,32161792;0,00762963
0,32178176;-0,08209479
0,32194560;0,00762963
0,32210944;0,00762963
0,32227328;-0,08209479
0,32243712;0,00762963
0,32260096;-0,08209479
0,32276480;-0,08209479
0,32292864;-0,08209479
0,32309248;-0,08209479
0,32325632;-0,08209479
0,32342016;-0,08209479
0,32358400;-0,08209479
0,32374784;-0,08209479
0,32391168;-0,08209479
0,32407552;-0,08209479
0,32423936;-0,08209479
0,32440320;-0,08209479
0,32456704;-0,08209479
0,32473088;-0,08209479
0,32489472;-0,17181920
0,32505856;-0,08209479
0,32522240;-0,08209479
0,32538624;-0,08209479
0,32555008;-0,08209479
0,32571392;-0,08209479
0,32587776;-0,08209479
0,32604160;-0,08209479
0,32620544;-0,08209479
0,32636928;-0,17181920
0,32653312;-0,08209479
0,32669696;-0,08209479
0,32686080;-0,08209479
0,32702464;-0,08209479
0,32718848;-0,08209479
0,32735232;-0,08209479
0,32751616;-0,08209479
0,32768000;0,00762963
0,32784384;0,00762963
0,32800768;0,00762963
0,32817152;-0,08209479
0,32833536;0,00762963
0,32849920;0,00762963
0,32866304;0,00762963
0,32882688;0,09735405
0,32899072;0,18707850
0,32915456;0,36652730
0,32931840;0,72573020
0,32948224;1,08493300
0,32964608;1,62389000
0,32980992;1,98309300
0,32997376;2,52174400
0,33013760;2,97097700
0,33030144;3,41990400
0,33046528;3,86883100
0,33062912;4,31775900
0,33079296;4,76699100
0,33095680;5,21591900
0,33112064;5,48539700
0,33128448;5,57512100
0,33144832;5,66484600
0,33161216;5,66484600
0,33177600;5,75457000
0,33193984;5,75457000
0,33210368;5,75457000
0,33226752;5,75457000
0,33243136;5,75457000
0,33259520;5,75457000
0,33275904;5,75457000
0,33292288;5,75457000
0,33308672;5,75457000
0,33325056;5,75457000
0,33341440;5,75457000
0,33357824;5,75457000
0,33374208;5,75457000
0,33390592;5,75457000
0,33406976;5,66484600
0,33423360;5,75457000
0,33439744;5,66484600
0,33456128;5,75457000
0,33472512;5,66484600
0,33488896;5,75457000
0,33505280;5,66484600
0,33521664;5,75457000
0,33538048;5,66484600
0,33554432;5,75457000
0,33570816;5,75457000
0,33587200;5,75457000
0,33603584;5,75457000
0,33619968;5,75457000
0,33636352;5,75457000
0,33652736;5,75457000
0,33669120;5,75457000
0,33685504;5,75457000
0,33701888;5,75457000
0,33718272;5,75457000
0,33734656;5,75457000
0,33751040;5,66484600
0,33767424;5,75457000
0,33783808;5,75457000
0,33800192;5,66484600
0,33816576;5,75457000
0,33832960;5,66484600
0,33849344;5,75457000
0,33865728;5,66484600
0,33882112;5,66484600
0,33898496;5,66484600
0,33914880;5,75457000
0,33931264;5,75457000
0,33947648;5,75457000
0,33964032;5,66484600
0,33980416;5,66484600
0,33996800;5,75457000
0,34013184;5,75457000
0,34029568;5,66484600
0,34045952;5,66484600
0,34062336;5,75457000
0,34078720;5,75457000
0,34095104;5,66484600
0,34111488;5,75457000
0,34127872;5,75457000
0,34144256;5,66484600
0,34160640;5,75457000
0,34177024;5,75457000
0,34193408;5,75457000
0,34209792;5,75457000
0,34226176;5,66484600
0,34242560;5,75457000
0,34258944;5,66484600
0,34275328;5,57512100
0,34291712;5,39536700
0,34308096;5,21591900
0,34324480;4,85671600
0,34340864;4,58723700
0,34357248;4,22803400
0,34373632;3,95855600
0,34390016;3,59935300
0,34406400;3,24015000
0,34422784;2,97097700
0,34439168;2,70149900
0,34455552;2,25257100
0,34471936;1,89336800
0,34488320;1,62389000
0,34504704;1,26468700
0,34521088;0,90548420
0,34537472;0,54628130
0,34553856;0,36652730
0,34570240;0,18707850
0,34586624;0,09735405
0,34603008;0,09735405
0,34619392;0,00762963
0,34635776;0,00762963
0,34652160;0,00762963
0,34668544;0,00762963
0,34684928;0,00762963
0,34701312;0,00762963
0,34717696;0,00762963
0,34734080;0,00762963
0,34750464;0,00762963
0,34766848;0,00762963
0,34783232;0,00762963
0,34799616;0,00762963
0,34816000;0,00762963
0,34832384;0,00762963
0,34848768;0,00762963
0,34865152;0,00762963
0,34881536;0,00762963
0,34897920;-0,08209479
0,34914304;0,00762963
0,34930688;0,00762963
0,34947072;0,00762963
0,34963456;0,00762963
0,34979840;0,00762963
0,34996224;0,00762963
0,35012608;0,00762963
0,35028992;0,00762963
0,35045376;0,00762963
0,35061760;0,00762963
0,35078144;0,00762963
0,35094528;0,00762963
0,35110912;0,00762963
0,35127296;0,00762963
0,35143680;0,00762963
0,35160064;0,00762963
0,35176448;0,00762963
0,35192832;0,00762963
0,35209216;0,00762963
0,35225600;0,09735405
0,35241984;0,09735405
0,35258368;0,00762963
0,35274752;0,09735405
0,35291136;0,00762963
0,35307520;0,09735405
0,35323904;0,00762963
0,35340288;0,00762963
0,35356672;0,00762963
0,35373056;0,00762963
0,35389440;0,09735405
0,35405824;0,00762963
0,35422208;0,00762963
0,35438592;0,00762963
0,35454976;0,00762963
0,35471360;0,00762963
0,35487744;0,00762963
0,35504128;0,00762963
0,35520512;0,00762963
0,35536896;0,00762963
0,35553280;0,00762963
0,35569664;0,00762963
0,35586048;0,00762963
0,35602432;0,00762963
0,35618816;0,00762963
0,35635200;0,00762963
0,35651584;0,00762963
0,35667968;0,00762963
0,35684352;0,00762963
0,35700736;0,00762963
0,35717120;0,00762963
0,35733504;0,00762963
0,35749888;0,00762963
0,35766272;0,00762963
0,35782656;0,00762963
0,35799040;-0,08209479
0,35815424;-0,08209479
0,35831808;-0,08209479
0,35848192;-0,08209479
0,35864576;-0,08209479
0,35880960;-0,08209479
0,35897344;-0,08209479
0,35913728;-0,08209479
0,35930112;-0,08209479
0,35946496;-0,08209479
0,35962880;-0,08209479
0,35979264;-0,08209479
0,35995648;-0,08209479
0,36012032;-0,08209479
0,36028416;-0,08209479
0,36044800;-0,08209479
0,36061184;-0,08209479
0,36077568;-0,08209479
0,36093952;-0,08209479
0,36110336;-0,17181920
0,36126720;-0,08209479
0,36143104;-0,17181920
0,36159488;-0,08209479
0,36175872;-0,08209479
0,36192256;-0,08209479
0,36208640;-0,08209479
0,36225024;-0,08209479
0,36241408;-0,08209479
0,36257792;-0,08209479
0,36274176;0,00762963
0,36290560;0,00762963
0,36306944;0,00762963
0,36323328;0,00762963
0,36339712;0,00762963
0,36356096;0,00762963
0,36372480;0,00762963
0,36388864;0,18707850
0,36405248;0,36652730
0,36421632;0,72573020
0,36438016;1,17496300
0,36454400;1,62389000
0,36470784;1,98309300
0,36487168;2,52174400
0,36503552;2,97097700
0,36519936;3,41990400
0,36536320;3,86883100
0,36552704;4,31775900
0,36569088;4,76699100
0,36585472;5,21591900
0,36601856;5,39536700
0,36618240;5,57512100
0,36634624;5,66484600
0,36651008;5,66484600
0,36667392;5,75457000
0,36683776;5,66484600
0,36700160;5,66484600
0,36716544;5,75457000
0,36732928;5,75457000
0,36749312;5,75457000
0,36765696;5,75457000
0,36782080;5,75457000
0,36798464;5,66484600
0,36814848;5,75457000
0,36831232;5,75457000
0,36847616;5,75457000
0,36864000;5,75457000
0,36880384;5,75457000
0,36896768;5,75457000
0,36913152;5,66484600
0,36929536;5,75457000
0,36945920;5,75457000
0,36962304;5,75457000
0,36978688;5,75457000
0,36995072;5,75457000
0,37011456;5,75457000
0,37027840;5,75457000
0,37044224;5,66484600
0,37060608;5,75457000
0,37076992;5,75457000
0,37093376;5,75457000
0,37109760;5,75457000
0,37126144;5,66484600
0,37142528;5,75457000
0,37158912;5,75457000
0,37175296;5,66484600
0,37191680;5,75457000
0,37208064;5,75457000
0,37224448;5,75457000
0,37240832;5,75457000
0,37257216;5,66484600
0,37273600;5,66484600
0,37289984;5,75457000
0,37306368;5,75457000
0,37322752;5,75457000
0,37339136;5,75457000
0,37355520;5,75457000
0,37371904;5,75457000
0,37388288;5,75457000
0,37404672;5,75457000
0,37421056;5,75457000
0,37437440;5,75457000
0,37453824;5,75457000
0,37470208;5,75457000
0,37486592;5,66484600
0,37502976;5,75457000
0,37519360;5,75457000
0,37535744;5,75457000
0,37552128;5,66484600
0,37568512;5,75457000
0,37584896;5,66484600
0,37601280;5,75457000
0,37617664;5,66484600
0,37634048;5,75457000
0,37650432;5,66484600
0,37666816;5,75457000
0,37683200;5,75457000
0,37699584;5,75457000
0,37715968;5,66484600
0,37732352;5,75457000
0,37748736;5,66484600
0,37765120;5,57512100
0,37781504;5,39536700
0,37797888;5,12619400
0,37814272;4,85671600
0,37830656;4,49751300
0,37847040;4,22803400
0,37863424;3,86883100
0,37879808;3,50962900
0,37896192;3,15042600
0,37912576;2,88094700
0,37928960;2,52174400
0,37945344;2,16254200
0,37961728;1,80333900
0,37978112;1,44413600
0,37994496;1,08493300
0,38010880;0,72573020
0,38027264;0,45655690
0,38043648;0,27680290
0,38060032;0,18707850
0,38076416;0,09735405
0,38092800;0,09735405
0,38109184;0,00762963
0,38125568;0,00762963
0,38141952;0,00762963
0,38158336;0,00762963
0,38174720;0,00762963
0,38191104;0,00762963
0,38207488;0,00762963
0,38223872;0,00762963
0,38240256;0,00762963
0,38256640;0,00762963
0,38273024;0,00762963
0,38289408;0,00762963
0,38305792;0,00762963
0,38322176;0,00762963
0,38338560;0,00762963
0,38354944;0,00762963
0,38371328;0,00762963
0,38387712;0,00762963
0,38404096;0,00762963
0,38420480;0,00762963
0,38436864;0,00762963
0,38453248;0,00762963
0,38469632;0,00762963
0,38486016;0,00762963
0,38502400;0,00762963
0,38518784;0,00762963
0,38535168;0,00762963
0,38551552;0,00762963
0,38567936;0,00762963
0,38584320;0,00762963
0,38600704;0,00762963
0,38617088;0,09735405
0,38633472;0,09735405
0,38649856;0,09735405
0,38666240;0,00762963
0,38682624;0,09735405
0,38699008;0,00762963
0,38715392;0,00762963
0,38731776;0,00762963
0,38748160;0,00762963
0,38764544;0,09735405
0,38780928;0,00762963
0,38797312;0,00762963
0,38813696;0,00762963
0,38830080;0,00762963
0,38846464;0,00762963
0,38862848;0,00762963
0,38879232;0,00762963
0,38895616;0,00762963
0,38912000;0,00762963
0,38928384;0,00762963
0,38944768;0,00762963
0,38961152;0,00762963
0,38977536;0,00762963
0,38993920;0,00762963
0,39010304;0,00762963
0,39026688;0,00762963
0,39043072;0,00762963
0,39059456;0,00762963
0,39075840;-0,08209479
0,39092224;0,00762963
0,39108608;0,00762963
0,39124992;-0,08209479
0,39141376;0,00762963
0,39157760;0,00762963
0,39174144;-0,08209479
0,39190528;-0,08209479
0,39206912;-0,08209479
0,39223296;-0,08209479
0,39239680;-0,08209479
0,39256064;-0,08209479
0,39272448;-0,08209479
0,39288832;-0,08209479
0,39305216;-0,08209479
0,39321600;-0,08209479
0,39337984;-0,08209479
0,39354368;-0,08209479
0,39370752;-0,08209479
0,39387136;-0,08209479
0,39403520;-0,08209479
0,39419904;-0,08209479
0,39436288;-0,08209479
0,39452672;-0,08209479
0,39469056;-0,08209479
0,39485440;-0,08209479
0,39501824;-0,08209479
0,39518208;-0,08209479
0,39534592;-0,08209479
0,39550976;-0,08209479
0,39567360;-0,08209479
0,39583744;-0,08209479
0,39600128;0,00762963
0,39616512;0,00762963
0,39632896;0,00762963
0,39649280;0,00762963
0,39665664;0,00762963
0,39682048;0,00762963
0,39698432;0,00762963
0,39714816;0,00762963
0,39731200;0,09735405
0,39747584;0,27680290
0,39763968;0,63600580
0,39780352;0,99520860
0,39796736;1,35441100
0,39813120;1,89336800
0,39829504;2,34229600
0,39845888;2,79122300
0,39862272;3,24015000
0,39878656;3,68938300
0,39895040;4,13831000
0,39911424;4,67696100
0,39927808;5,03616400
0,39944192;5,39536700
0,39960576;5,57512100
0,39976960;5,66484600
0,39993344;5,66484600
0,40009728;5,66484600
0,40026112;5,75457000
0,40042496;5,66484600
0,40058880;5,75457000
0,40075264;5,75457000
0,40091648;5,75457000
0,40108032;5,75457000
0,40124416;5,75457000
0,40140800;5,75457000
0,40157184;5,66484600
0,40173568;5,66484600
0,40189952;5,75457000
0,40206336;5,75457000
0,40222720;5,75457000
0,40239104;5,75457000
0,40255488;5,75457000
0,40271872;5,75457000
0,40288256;5,75457000
0,40304640;5,75457000
0,40321024;5,75457000
0,40337408;5,75457000
0,40353792;5,75457000
0,40370176;5,75457000
0,40386560;5,75457000
0,40402944;5,75457000
0,40419328;5,75457000
0,40435712;5,75457000
0,40452096;5,75457000
0,40468480;5,75457000
0,40484864;5,75457000
0,40501248;5,75457000
0,40517632;5,75457000
0,40534016;5,75457000
0,40550400;5,75457000
0,40566784;5,75457000
0,40583168;5,75457000
0,40599552;5,66484600
0,40615936;5,75457000
0,40632320;5,75457000
0,40648704;5,66484600
0,40665088;5,75457000
0,40681472;5,66484600
0,40697856;5,75457000
0,40714240;5,75457000
0,40730624;5,75457000
0,40747008;5,75457000
0,40763392;5,75457000
0,40779776;5,75457000
0,40796160;5,75457000
0,40812544;5,75457000
0,40828928;5,75457000
0,40845312;5,75457000
0,40861696;5,75457000
0,40878080;5,75457000
0,40894464;5,66484600
0,40910848;5,75457000
0,40927232;5,75457000
0,40943616;5,75457000
0,40960000;5,75457000
0,40976384;5,75457000
0,40992768;5,75457000
0,41009152;5,75457000
0,41025536;5,75457000
0,41041920;5,75457000
0,41058304;5,75457000
0,41074688;5,66484600
0,41091072;5,66484600
0,41107456;5,57512100
0,41123840;5,48539700
0,41140224;5,30564300
0,41156608;5,03616400
0,41172992;4,76699100
0,41189376;4,40778800
0,41205760;4,13831000
0,41222144;3,77910700
0,41238528;3,41990400
0,41254912;3,15042600
0,41271296;2,79122300
0,41287680;2,43202000
0,41304064;2,07281700
0,41320448;1,80333900
0,41336832;1,35441100
0,41353216;0,99520860
0,41369600;0,63600580
0,41385984;0,45655690
0,41402368;0,27680290
0,41418752;0,18707850
0,41435136;0,09735405
0,41451520;0,00762963
0,41467904;0,00762963
0,41484288;0,00762963
0,41500672;0,00762963
0,41517056;0,00762963
0,41533440;0,00762963
0,41549824;0,00762963
0,41566208;0,00762963
0,41582592;0,00762963
0,41598976;0,00762963
0,41615360;0,00762963
0,41631744;0,00762963
0,41648128;0,00762963
0,41664512;0,00762963
0,41680896;0,00762963
0,41697280;0,00762963
0,41713664;0,00762963
0,41730048;0,00762963
0,41746432;0,00762963
0,41762816;0,00762963
0,41779200;0,00762963
0,41795584;0,00762963
0,41811968;0,00762963
0,41828352;0,00762963
0,41844736;0,00762963
0,41861120;0,00762963
0,41877504;0,00762963
0,41893888;-0,08209479
0,41910272;0,00762963
0,41926656;0,00762963
0,41943040;0,00762963
0,41959424;0,00762963
0,41975808;0,00762963
0,41992192;0,09735405
0,42008576;0,09735405
0,42024960;0,09735405
0,42041344;0,09735405
0,42057728;0,00762963
0,42074112;0,00762963
0,42090496;0,09735405
0,42106880;0,00762963
0,42123264;0,00762963
0,42139648;0,00762963
0,42156032;0,00762963
0,42172416;0,00762963
0,42188800;0,00762963
0,42205184;0,00762963
0,42221568;0,00762963
0,42237952;0,00762963
0,42254336;0,00762963
0,42270720;0,00762963
0,42287104;0,00762963
0,42303488;0,00762963
0,42319872;0,00762963
0,42336256;0,00762963
0,42352640;0,00762963
0,42369024;0,00762963
0,42385408;0,00762963
0,42401792;0,00762963
0,42418176;0,00762963
0,42434560;0,00762963
0,42450944;0,00762963
0,42467328;0,00762963
0,42483712;-0,08209479
0,42500096;-0,08209479
0,42516480;0,00762963
0,42532864;-0,08209479
0,42549248;-0,08209479
0,42565632;0,00762963
0,42582016;-0,08209479
0,42598400;-0,08209479
0,42614784;-0,08209479
0,42631168;-0,08209479
0,42647552;-0,08209479
0,42663936;-0,08209479
0,42680320;-0,08209479
0,42696704;-0,08209479
0,42713088;-0,08209479
0,42729472;-0,08209479
0,42745856;-0,08209479
0,42762240;-0,08209479
0,42778624;-0,08209479
0,42795008;-0,08209479
0,42811392;-0,08209479
0,42827776;-0,08209479
0,42844160;-0,08209479
0,42860544;-0,17181920
0,42876928;-0,08209479
0,42893312;-0,08209479
0,42909696;-0,17181920
0,42926080;-0,08209479
0,42942464;-0,17181920
0,42958848;-0,08209479
0,42975232;-0,08209479
0,42991616;-0,17181920
0,43008000;-0,08209479
0,43024384;-0,08209479
0,43040768;0,00762963
0,43057152;0,00762963
0,43073536;0,00762963
0,43089920;0,00762963
0,43106304;-0,08209479
0,43122688;0,00762963
0,43139072;0,00762963
0,43155456;0,00762963
0,43171840;0,09735405
0,43188224;0,27680290
0,43204608;0,72573020
0,43220992;1,08493300
0,43237376;1,53416600
0,43253760;1,98309300
0,43270144;2,34229600
0,43286528;2,88094700
0,43302912;3,33018000
0,43319296;3,77910700
0,43335680;4,22803400
0,43352064;4,67696100
0,43368448;5,12619400
0,43384832;5,39536700
0,43401216;5,57512100
0,43417600;5,66484600
0,43433984;5,66484600
0,43450368;5,66484600
0,43466752;5,66484600
0,43483136;5,75457000
0,43499520;5,75457000
0,43515904;5,75457000
0,43532288;5,75457000
0,43548672;5,75457000
0,43565056;5,75457000
0,43581440;5,75457000
0,43597824;5,75457000
0,43614208;5,75457000
0,43630592;5,75457000
0,43646976;5,66484600
0,43663360;5,66484600
0,43679744;5,75457000
0,43696128;5,75457000
0,43712512;5,75457000
0,43728896;5,75457000
0,43745280;5,75457000
0,43761664;5,66484600
0,43778048;5,75457000
0,43794432;5,75457000
0,43810816;5,75457000
0,43827200;5,75457000
0,43843584;5,75457000
0,43859968;5,75457000
0,43876352;5,66484600
0,43892736;5,75457000
0,43909120;5,75457000
0,43925504;5,75457000
0,43941888;5,75457000
0,43958272;5,75457000
0,43974656;5,75457000
0,43991040;5,66484600
0,44007424;5,75457000
0,44023808;5,75457000
0,44040192;5,75457000
0,44056576;5,75457000
0,44072960;5,75457000
0,44089344;5,66484600
0,44105728;5,66484600
0,44122112;5,66484600
0,44138496;5,75457000
0,44154880;5,75457000
0,44171264;5,75457000
0,44187648;5,75457000
0,44204032;5,75457000
0,44220416;5,75457000
0,44236800;5,66484600
0,44253184;5,75457000
0,44269568;5,75457000
0,44285952;5,75457000
0,44302336;5,75457000
0,44318720;5,66484600
0,44335104;5,75457000
0,44351488;5,75457000
0,44367872;5,75457000
0,44384256;5,75457000
0,44400640;5,75457000
0,44417024;5,66484600
0,44433408;5,75457000
0,44449792;5,75457000
0,44466176;5,66484600
0,44482560;5,66484600
0,44498944;5,75457000
0,44515328;5,66484600
0,44531712;5,66484600
0,44548096;5,57512100
0,44564480;5,39536700
0,44580864;5,12619400
0,44597248;4,85671600
0,44613632;4,58723700
0,44630016;4,22803400
0,44646400;3,95855600
0,44662784;3,59935300
0,44679168;3,24015000
0,44695552;2,97097700
0,44711936;2,61177400
0,44728320;2,25257100
0,44744704;1,89336800
0,44761088;1,53416600
0,44777472;1,17496300
0,44793856;0,81575980
0,44810240;0,54628130
0,44826624;0,27680290
0,44843008;0,18707850
0,44859392;0,18707850
0,44875776;0,00762963
0,44892160;0,00762963
0,44908544;0,00762963
0,44924928;0,00762963
0,44941312;0,00762963
0,44957696;0,00762963
0,44974080;0,00762963
0,44990464;0,00762963
0,45006848;0,00762963
0,45023232;0,00762963
0,45039616;0,00762963
0,45056000;0,00762963
0,45072384;0,00762963
0,45088768;0,00762963
0,45105152;0,00762963
0,45121536;0,00762963
0,45137920;0,00762963
0,45154304;0,00762963
0,45170688;0,00762963
0,45187072;0,00762963
0,45203456;0,00762963
0,45219840;0,00762963
0,45236224;0,00762963
0,45252608;0,00762963
0,45268992;0,00762963
0,45285376;0,00762963
0,45301760;0,00762963
0,45318144;0,00762963
0,45334528;0,00762963
0,45350912;0,00762963
0,45367296;0,00762963
0,45383680;0,00762963
0,45400064;0,00762963
0,45416448;0,00762963
0,45432832;0,00762963
0,45449216;0,00762963
0,45465600;0,00762963
0,45481984;0,00762963
0,45498368;0,00762963
0,45514752;0,09735405
0,45531136;0,09735405
0,45547520;0,00762963
0,45563904;0,09735405
0,45580288;0,00762963
0,45596672;0,09735405
0,45613056;0,00762963
0,45629440;0,00762963
0,45645824;0,09735405
0,45662208;0,00762963
0,45678592;0,09735405
0,45694976;0,00762963
0,45711360;0,00762963
0,45727744;0,00762963
0,45744128;0,00762963
0,45760512;0,00762963
0,45776896;0,00762963
0,45793280;0,00762963
0,45809664;0,00762963
0,45826048;0,00762963
0,45842432;0,00762963
0,45858816;0,00762963
0,45875200;0,00762963
0,45891584;0,00762963
0,45907968;0,00762963
0,45924352;0,00762963
0,45940736;0,00762963
0,45957120;0,00762963
0,45973504;0,00762963
0,45989888;0,00762963
0,46006272;0,00762963
0,46022656;-0,08209479
0,46039040;-0,08209479
0,46055424;-0,08209479
0,46071808;-0,08209479
0,46088192;-0,08209479
0,46104576;-0,08209479
0,46120960;-0,08209479
0,46137344;-0,08209479
0,46153728;-0,08209479
0,46170112;-0,08209479
0,46186496;-0,08209479
0,46202880;-0,08209479
0,46219264;-0,08209479
0,46235648;-0,08209479
0,46252032;-0,08209479
0,46268416;-0,08209479
0,46284800;-0,08209479
0,46301184;-0,08209479
0,46317568;-0,08209479
0,46333952;-0,08209479
0,46350336;-0,17181920
0,46366720;-0,17181920
0,46383104;-0,08209479
0,46399488;-0,08209479
0,46415872;-0,17181920
0,46432256;-0,08209479
0,46448640;-0,08209479
0,46465024;-0,08209479
0,46481408;-0,08209479
0,46497792;-0,08209479
0,46514176;-0,08209479
0,46530560;0,00762963
0,46546944;0,00762963
0,46563328;0,00762963
0,46579712;0,00762963
0,46596096;0,00762963
0,46612480;0,00762963
0,46628864;0,00762963
0,46645248;0,00762963
0,46661632;0,18707850
0,46678016;0,36652730
0,46694400;0,72573020
0,46710784;1,17496300
0,46727168;1,62389000
0,46743552;1,98309300
0,46759936;2,43202000
0,46776320;2,88094700
0,46792704;3,41990400
0,46809088;3,86883100
0,46825472;4,31775900
0,46841856;4,76699100
0,46858240;5,21591900
0,46874624;5,39536700
0,46891008;5,57512100
0,46907392;5,66484600
0,46923776;5,66484600
0,46940160;5,75457000
0,46956544;5,75457000
0,46972928;5,75457000
0,46989312;5,66484600
0,47005696;5,66484600
0,47022080;5,75457000
0,47038464;5,75457000
0,47054848;5,75457000
0,47071232;5,75457000
0,47087616;5,75457000
0,47104000;5,75457000
0,47120384;5,75457000
0,47136768;5,75457000
0,47153152;5,75457000
0,47169536;5,75457000
0,47185920;5,75457000
0,47202304;5,75457000
0,47218688;5,75457000
0,47235072;5,66484600
0,47251456;5,75457000
0,47267840;5,75457000
0,47284224;5,66484600
0,47300608;5,75457000
0,47316992;5,75457000
0,47333376;5,75457000
0,47349760;5,75457000
0,47366144;5,75457000
0,47382528;5,75457000
0,47398912;5,75457000
0,47415296;5,66484600
0,47431680;5,75457000
0,47448064;5,75457000
0,47464448;5,66484600
0,47480832;5,75457000
0,47497216;5,75457000
0,47513600;5,75457000
0,47529984;5,75457000
0,47546368;5,75457000
0,47562752;5,75457000
0,47579136;5,66484600
0,47595520;5,75457000
0,47611904;5,66484600
0,47628288;5,66484600
0,47644672;5,75457000
0,47661056;5,75457000
0,47677440;5,75457000
0,47693824;5,75457000
0,47710208;5,75457000
0,47726592;5,75457000
0,47742976;5,75457000
0,47759360;5,75457000
0,47775744;5,66484600
0,47792128;5,75457000
0,47808512;5,75457000
0,47824896;5,75457000
0,47841280;5,75457000
0,47857664;5,66484600
0,47874048;5,75457000
0,47890432;5,75457000
0,47906816;5,75457000
0,47923200;5,66484600
0,47939584;5,75457000
0,47955968;5,75457000
0,47972352;5,75457000
0,47988736;5,66484600
0,48005120;5,66484600
0,48021504;5,66484600
0,48037888;5,57512100
0,48054272;5,30564300
0,48070656;5,03616400
0,48087040;4,76699100
0,48103424;4,49751300
0,48119808;4,13831000
0,48136192;3,86883100
0,48152576;3,50962900
0,48168960;3,15042600
0,48185344;2,88094700
0,48201728;2,52174400
0,48218112;2,16254200
0,48234496;1,80333900
0,48250880;1,44413600
0,48267264;0,99520860
0,48283648;0,72573020
0,48300032;0,45655690
0,48316416;0,27680290
0,48332800;0,18707850
0,48349184;0,09735405
0,48365568;0,00762963
0,48381952;0,00762963
0,48398336;0,00762963
0,48414720;0,00762963
0,48431104;0,00762963
0,48447488;0,00762963
0,48463872;0,00762963
0,48480256;0,00762963
0,48496640;0,00762963
0,48513024;0,00762963
0,48529408;0,00762963
0,48545792;0,00762963
0,48562176;0,00762963
0,48578560;0,00762963
0,48594944;0,00762963
0,48611328;-0,08209479
0,48627712;0,00762963
0,48644096;0,00762963
0,48660480;0,00762963
0,48676864;0,00762963
0,48693248;0,00762963
0,48709632;0,00762963
0,48726016;0,00762963
0,48742400;0,00762963
0,48758784;0,00762963
0,48775168;0,00762963
0,48791552;0,00762963
0,48807936;0,00762963
0,48824320;0,00762963
0,48840704;0,00762963
0,48857088;0,00762963
0,48873472;0,09735405
0,48889856;0,00762963
0,48906240;0,09735405
0,48922624;0,00762963
0,48939008;0,00762963
0,48955392;0,00762963
0,48971776;0,09735405
0,48988160;0,00762963
0,49004544;0,09735405
0,49020928;0,00762963
0,49037312;0,00762963
0,49053696;0,00762963
0,49070080;0,00762963
0,49086464;0,00762963
0,49102848;0,00762963
0,49119232;0,00762963
0,49135616;0,00762963
0,49152000;0,00762963
0,49168384;0,00762963
0,49184768;0,00762963
0,49201152;0,00762963
0,49217536;0,00762963
0,49233920;0,00762963
0,49250304;0,00762963
0,49266688;0,00762963
0,49283072;0,00762963
0,49299456;0,00762963
0,49315840;0,00762963
0,49332224;0,00762963
0,49348608;0,00762963
0,49364992;0,00762963
0,49381376;0,00762963
0,49397760;0,00762963
0,49414144;0,00762963
0,49430528;-0,08209479
0,49446912;0,00762963
0,49463296;-0,08209479
0,49479680;0,00762963
0,49496064;-0,08209479
0,49512448;-0,08209479
0,49528832;-0,08209479
0,49545216;-0,08209479
0,49561600;-0,08209479
0,49577984;-0,08209479
0,49594368;-0,08209479
0,49610752;-0,08209479
0,49627136;-0,08209479
0,49643520;-0,08209479
0,49659904;-0,08209479
0,49676288;-0,08209479
0,49692672;-0,08209479
0,49709056;-0,08209479
0,49725440;-0,08209479
0,49741824;-0,08209479
0,49758208;-0,08209479
0,49774592;-0,08209479
0,49790976;-0,08209479
0,49807360;-0,08209479
0,49823744;-0,08209479
0,49840128;0,00762963
0,49856512;-0,08209479
0,49872896;0,00762963
0,49889280;0,00762963
0,49905664;0,00762963
0,49922048;0,00762963
0,49938432;0,00762963
0,49954816;0,00762963
0,49971200;0,00762963
0,49987584;0,00762963
0,50003968;0,09735405
0,50020352;0,27680290
0,50036736;0,63600580
0,50053120;0,99520860
0,50069504;1,35441100
0,50085888;1,80333900
0,50102272;2,34229600
0,50118656;2,70149900
0,50135040;3,24015000
0,50151424;3,68938300
0,50167808;4,13831000
0,50184192;4,58723700
0,50200576;4,94644000
0,50216960;5,30564300
0,50233344;5,57512100
0,50249728;5,66484600
0,50266112;5,66484600
0,50282496;5,66484600
0,50298880;5,75457000
0,50315264;5,75457000
0,50331648;5,75457000
0,50348032;5,75457000
0,50364416;5,66484600
0,50380800;5,75457000
0,50397184;5,75457000
0,50413568;5,75457000
0,50429952;5,75457000
0,50446336;5,75457000
0,50462720;5,75457000
0,50479104;5,75457000
0,50495488;5,75457000
0,50511872;5,75457000
0,50528256;5,75457000
0,50544640;5,75457000
0,50561024;5,75457000
0,50577408;5,75457000
0,50593792;5,75457000
0,50610176;5,75457000
0,50626560;5,75457000
0,50642944;5,75457000
0,50659328;5,75457000
0,50675712;5,75457000
0,50692096;5,75457000
0,50708480;5,75457000
0,50724864;5,75457000
0,50741248;5,75457000
0,50757632;5,75457000
0,50774016;5,66484600
0,50790400;5,75457000
0,50806784;5,75457000
0,50823168;5,75457000
0,50839552;5,75457000
0,50855936;5,75457000
0,50872320;5,75457000
0,50888704;5,75457000
0,50905088;5,75457000
0,50921472;5,75457000
0,50937856;5,75457000
0,50954240;5,75457000
0,50970624;5,75457000
0,50987008;5,75457000
0,51003392;5,75457000
0,51019776;5,75457000
0,51036160;5,75457000
0,51052544;5,75457000
0,51068928;5,75457000
0,51085312;5,75457000
0,51101696;5,75457000
0,51118080;5,75457000
0,51134464;5,75457000
0,51150848;5,66484600
0,51167232;5,66484600
0,51183616;5,75457000
0,51200000;5,75457000
0,51216384;5,66484600
0,51232768;5,66484600
0,51249152;5,66484600
0,51265536;5,75457000
0,51281920;5,75457000
0,51298304;5,66484600
0,51314688;5,75457000
0,51331072;5,75457000
0,51347456;5,66484600
0,51363840;5,66484600
0,51380224;5,57512100
0,51396608;5,48539700
0,51412992;5,30564300
0,51429376;4,94644000
0,51445760;4,67696100
0,51462144;4,40778800
0,51478528;4,13831000
0,51494912;3,77910700
0,51511296;3,50962900
0,51527680;3,15042600
0,51544064;2,79122300
0,51560448;2,43202000
0,51576832;2,07281700
0,51593216;1,71361400
0,51609600;1,35441100
0,51625984;0,99520860
0,51642368;0,72573020
0,51658752;0,45655690
0,51675136;0,27680290
0,51691520;0,18707850
0,51707904;0,09735405
0,51724288;0,00762963
0,51740672;0,00762963
0,51757056;0,00762963
0,51773440;0,00762963
0,51789824;0,00762963
0,51806208;0,00762963
0,51822592;0,00762963
0,51838976;0,00762963
0,51855360;0,00762963
0,51871744;0,00762963
0,51888128;0,00762963
0,51904512;0,00762963
0,51920896;0,00762963
0,51937280;0,00762963
0,51953664;0,00762963
0,51970048;0,00762963
0,51986432;0,00762963
0,52002816;0,00762963
0,52019200;0,00762963
0,52035584;0,00762963
0,52051968;0,00762963
0,52068352;0,00762963
0,52084736;0,00762963
0,52101120;0,00762963
0,52117504;0,00762963
0,52133888;0,00762963
0,52150272;0,00762963
0,52166656;0,00762963
0,52183040;0,00762963
0,52199424;0,00762963
0,52215808;0,00762963
0,52232192;0,00762963
0,52248576;0,00762963
0,52264960;0,09735405
0,52281344;0,09735405
0,52297728;0,00762963
0,52314112;0,00762963
0,52330496;0,09735405
0,52346880;0,09735405
0,52363264;0,00762963
0,52379648;0,09735405
0,52396032;0,00762963
0,52412416;0,00762963
0,52428800;0,00762963
0,52445184;0,00762963
0,52461568;0,00762963
0,52477952;0,00762963
0,52494336;0,00762963
0,52510720;0,00762963
0,52527104;0,00762963
0,52543488;0,00762963
0,52559872;0,00762963
0,52576256;0,00762963
0,52592640;0,00762963
0,52609024;0,00762963
0,52625408;0,00762963
0,52641792;0,00762963
0,52658176;0,00762963
0,52674560;0,00762963
0,52690944;0,00762963
0,52707328;-0,08209479
0,52723712;0,00762963
0,52740096;-0,08209479
0,52756480;0,00762963
0,52772864;0,00762963
0,52789248;-0,08209479
0,52805632;-0,08209479
0,52822016;-0,08209479
0,52838400;-0,08209479
0,52854784;-0,08209479
0,52871168;-0,08209479
0,52887552;-0,08209479
0,52903936;-0,08209479
0,52920320;-0,08209479
0,52936704;-0,08209479
0,52953088;-0,08209479
0,52969472;-0,08209479
0,52985856;-0,08209479
0,53002240;-0,08209479
0,53018624;-0,08209479
0,53035008;-0,08209479
0,53051392;-0,08209479
0,53067776;-0,08209479
0,53084160;-0,08209479
0,53100544;-0,08209479
0,53116928;-0,08209479
0,53133312;-0,08209479
0,53149696;-0,17181920
0,53166080;-0,08209479
0,53182464;-0,17181920
0,53198848;-0,08209479
0,53215232;-0,17181920
0,53231616;-0,08209479
0,53248000;-0,08209479
0,53264384;-0,08209479
0,53280768;-0,17181920
0,53297152;-0,08209479
0,53313536;-0,08209479
0,53329920;0,00762963
0,53346304;0,00762963
0,53362688;0,00762963
0,53379072;0,00762963
0,53395456;0,00762963
0,53411840;0,00762963
0,53428224;0,00762963
0,53444608;0,09735405
0,53460992;0,36652730
0,53477376;0,72573020
0,53493760;1,08493300
0,53510144;1,53416600
0,53526528;1,98309300
0,53542912;2,43202000
0,53559296;2,97097700
0,53575680;3,41990400
0,53592064;3,86883100
0,53608448;4,22803400
0,53624832;4,76699100
0,53641216;5,21591900
0,53657600;5,39536700
0,53673984;5,57512100
0,53690368;5,66484600
0,53706752;5,66484600
0,53723136;5,66484600
0,53739520;5,75457000
0,53755904;5,75457000
0,53772288;5,75457000
0,53788672;5,75457000
0,53805056;5,66484600
0,53821440;5,66484600
0,53837824;5,75457000
0,53854208;5,75457000
0,53870592;5,75457000
0,53886976;5,75457000
0,53903360;5,75457000
0,53919744;5,75457000
0,53936128;5,75457000
0,53952512;5,75457000
0,53968896;5,66484600
0,53985280;5,75457000
0,54001664;5,66484600
0,54018048;5,75457000
0,54034432;5,75457000
0,54050816;5,75457000
0,54067200;5,75457000
0,54083584;5,75457000
0,54099968;5,75457000
0,54116352;5,75457000
0,54132736;5,75457000
0,54149120;5,75457000
0,54165504;5,75457000
0,54181888;5,75457000
0,54198272;5,75457000
0,54214656;5,66484600
0,54231040;5,75457000
0,54247424;5,66484600
0,54263808;5,66484600
0,54280192;5,75457000
0,54296576;5,66484600
0,54312960;5,75457000
0,54329344;5,75457000
0,54345728;5,75457000
0,54362112;5,75457000
0,54378496;5,75457000
0,54394880;5,66484600
0,54411264;5,75457000
0,54427648;5,75457000
0,54444032;5,66484600
0,54460416;5,66484600
0,54476800;5,75457000
0,54493184;5,75457000
0,54509568;5,75457000
0,54525952;5,75457000
0,54542336;5,75457000
0,54558720;5,75457000
0,54575104;5,75457000
0,54591488;5,75457000
0,54607872;5,66484600
0,54624256;5,75457000
0,54640640;5,75457000
0,54657024;5,75457000
0,54673408;5,75457000
0,54689792;5,75457000
0,54706176;5,66484600
0,54722560;5,75457000
0,54738944;5,75457000
0,54755328;5,75457000
0,54771712;5,75457000
0,54788096;5,66484600
0,54804480;5,57512100
0,54820864;5,57512100
0,54837248;5,39536700
0,54853632;5,12619400
0,54870016;4,85671600
0,54886400;4,49751300
0,54902784;4,13831000
0,54919168;3,86883100
0,54935552;3,59935300
0,54951936;3,24015000
0,54968320;2,88094700
0,54984704;2,61177400
0,55001088;2,16254200
0,55017472;1,89336800
0,55033856;1,62389000
0,55050240;1,17496300
0,55066624;0,81575980
0,55083008;0,54628130
0,55099392;0,27680290
0,55115776;0,18707850
0,55132160;0,18707850
0,55148544;0,00762963
0,55164928;0,00762963
0,55181312;0,00762963
0,55197696;0,00762963
0,55214080;0,00762963
0,55230464;0,00762963
0,55246848;0,00762963
0,55263232;0,00762963
0,55279616;0,00762963
0,55296000;0,00762963
0,55312384;0,00762963
0,55328768;0,00762963
0,55345152;0,00762963
0,55361536;0,00762963
0,55377920;0,00762963
0,55394304;0,00762963
0,55410688;0,00762963
0,55427072;0,00762963
0,55443456;0,00762963
0,55459840;0,00762963
0,55476224;0,00762963
0,55492608;0,00762963
0,55508992;0,00762963
0,55525376;0,00762963
0,55541760;0,00762963
0,55558144;0,00762963
0,55574528;0,00762963
0,55590912;0,00762963
0,55607296;0,00762963
0,55623680;0,00762963
0,55640064;0,00762963
0,55656448;0,00762963
0,55672832;0,00762963
0,55689216;0,00762963
0,55705600;0,00762963
0,55721984;0,00762963
0,55738368;0,00762963
0,55754752;0,09735405
0,55771136;0,00762963
0,55787520;0,09735405
0,55803904;0,00762963
0,55820288;0,00762963
0,55836672;0,09735405
0,55853056;0,09735405
0,55869440;0,09735405
0,55885824;0,09735405
0,55902208;0,09735405
0,55918592;0,00762963
0,55934976;0,00762963
0,55951360;0,00762963
0,55967744;0,00762963
0,55984128;0,00762963
0,56000512;0,00762963
0,56016896;0,00762963
0,56033280;0,00762963
0,56049664;0,00762963
0,56066048;0,00762963
0,56082432;0,00762963
0,56098816;0,00762963
0,56115200;0,00762963
0,56131584;0,00762963
0,56147968;0,00762963
0,56164352;0,00762963
0,56180736;0,00762963
0,56197120;0,00762963
0,56213504;0,00762963
0,56229888;0,00762963
0,56246272;0,00762963
0,56262656;-0,08209479
0,56279040;0,00762963
0,56295424;-0,08209479
0,56311808;-0,08209479
0,56328192;-0,08209479
0,56344576;-0,08209479
0,56360960;-0,08209479
0,56377344;-0,08209479
0,56393728;-0,08209479
0,56410112;-0,08209479
0,56426496;-0,08209479
0,56442880;-0,08209479
0,56459264;-0,08209479
0,56475648;-0,08209479
0,56492032;-0,08209479
0,56508416;-0,08209479
0,56524800;-0,08209479
0,56541184;-0,08209479
0,56557568;-0,08209479
0,56573952;-0,08209479
0,56590336;-0,08209479
0,56606720;-0,08209479
0,56623104;-0,08209479
0,56639488;-0,08209479
0,56655872;-0,17181920
0,56672256;-0,08209479
0,56688640;-0,17181920
0,56705024;-0,08209479
0,56721408;-0,08209479
0,56737792;-0,08209479
0,56754176;-0,08209479
0,56770560;-0,08209479
0,56786944;0,00762963
0,56803328;0,00762963
0,56819712;-0,08209479
0,56836096;-0,08209479
0,56852480;0,00762963
0,56868864;0,00762963
0,56885248;0,00762963
0,56901632;0,00762963
0,56918016;0,09735405
0,56934400;0,18707850
0,56950784;0,54628130
0,56967168;0,90548420
0,56983552;1,26468700
0,56999936;1,71361400
0,57016320;2,16254200
0,57032704;2,61177400
0,57049088;3,06070100
0,57065472;3,50962900
0,57081856;4,04858500
0,57098240;4,49751300
0,57114624;4,85671600
0,57131008;5,30564300
0,57147392;5,48539700
0,57163776;5,57512100
0,57180160;5,66484600
0,57196544;5,66484600
0,57212928;5,75457000
0,57229312;5,75457000
0,57245696;5,75457000
0,57262080;5,75457000
0,57278464;5,66484600
0,57294848;5,75457000
0,57311232;5,75457000
0,57327616;5,75457000
0,57344000;5,75457000
0,57360384;5,75457000
0,57376768;5,75457000
0,57393152;5,75457000
0,57409536;5,75457000
0,57425920;5,66484600
0,57442304;5,75457000
0,57458688;5,75457000
0,57475072;5,75457000
0,57491456;5,75457000
0,57507840;5,66484600
0,57524224;5,75457000
0,57540608;5,75457000
0,57556992;5,75457000
0,57573376;5,75457000
0,57589760;5,75457000
0,57606144;5,75457000
0,57622528;5,75457000
0,57638912;5,75457000
0,57655296;5,75457000
0,57671680;5,75457000
0,57688064;5,75457000
0,57704448;5,66484600
0,57720832;5,75457000
0,57737216;5,75457000
0,57753600;5,75457000
0,57769984;5,75457000
0,57786368;5,66484600
0,57802752;5,75457000
0,57819136;5,75457000
0,57835520;5,75457000
0,57851904;5,75457000
0,57868288;5,75457000
0,57884672;5,75457000
0,57901056;5,75457000
0,57917440;5,66484600
0,57933824;5,75457000
0,57950208;5,66484600
0,57966592;5,75457000
0,57982976;5,66484600
0,57999360;5,75457000
0,58015744;5,75457000
0,58032128;5,66484600
0,58048512;5,66484600
0,58064896;5,75457000
0,58081280;5,75457000
0,58097664;5,75457000
0,58114048;5,66484600
0,58130432;5,75457000
0,58146816;5,75457000
0,58163200;5,75457000
0,58179584;5,75457000
0,58195968;5,75457000
0,58212352;5,75457000
0,58228736;5,75457000
0,58245120;5,66484600
0,58261504;5,66484600
0,58277888;5,66484600
0,58294272;5,57512100
0,58310656;5,48539700
0,58327040;5,30564300
0,58343424;4,94644000
0,58359808;4,67696100
0,58376192;4,40778800
0,58392576;4,13831000
0,58408960;3,77910700
0,58425344;3,41990400
0,58441728;3,06070100
0,58458112;2,79122300
0,58474496;2,43202000
0,58490880;2,07281700
0,58507264;1,71361400
0,58523648;1,26468700
0,58540032;0,99520860
0,58556416;0,63600580
0,58572800;0,36652730
0,58589184;0,18707850
0,58605568;0,09735405
0,58621952;0,09735405
0,58638336;0,00762963
0,58654720;0,00762963
0,58671104;0,00762963
0,58687488;0,00762963
0,58703872;0,00762963
0,58720256;0,00762963
0,58736640;0,00762963
0,58753024;0,00762963
0,58769408;0,00762963
0,58785792;0,00762963
0,58802176;0,00762963
0,58818560;0,00762963
0,58834944;-0,08209479
0,58851328;0,00762963
0,58867712;0,00762963
0,58884096;0,00762963
0,58900480;0,00762963
0,58916864;0,00762963
0,58933248;0,00762963
0,58949632;0,00762963
0,58966016;-0,08209479
0,58982400;0,00762963
0,58998784;0,00762963
0,59015168;0,00762963
0,59031552;0,00762963
0,59047936;0,00762963
0,59064320;0,00762963
0,59080704;-0,08209479
0,59097088;0,00762963
0,59113472;0,00762963
0,59129856;0,00762963
0,59146240;0,09735405
0,59162624;0,00762963
0,59179008;0,09735405
0,59195392;0,09735405
0,59211776;0,09735405
0,59228160;0,09735405
0,59244544;0,09735405
0,59260928;0,00762963
0,59277312;0,09735405
0,59293696;0,09735405
0,59310080;0,00762963
0,59326464;0,00762963
0,59342848;0,00762963
0,59359232;0,00762963
0,59375616;0,00762963
0,59392000;0,00762963
0,59408384;0,00762963
0,59424768;0,00762963
0,59441152;0,00762963
0,59457536;0,00762963
0,59473920;0,00762963
0,59490304;0,00762963
0,59506688;0,00762963
0,59523072;0,00762963
0,59539456;0,00762963
0,59555840;0,00762963
0,59572224;0,00762963
0,59588608;0,00762963
0,59604992;0,00762963
0,59621376;0,00762963
0,59637760;-0,08209479
0,59654144;0,00762963
0,59670528;0,00762963
0,59686912;0,00762963
0,59703296;0,00762963
0,59719680;0,00762963
0,59736064;-0,08209479
0,59752448;-0,08209479
0,59768832;-0,08209479
0,59785216;-0,08209479
0,59801600;-0,08209479
0,59817984;0,00762963
0,59834368;-0,08209479
0,59850752;-0,08209479
0,59867136;-0,08209479
0,59883520;-0,08209479
0,59899904;0,00762963
0,59916288;-0,08209479
0,59932672;-0,08209479
0,59949056;-0,08209479
0,59965440;-0,08209479
0,59981824;-0,08209479
0,59998208;-0,08209479
0,60014592;-0,08209479
0,60030976;-0,08209479
0,60047360;-0,08209479
0,60063744;-0,08209479
0,60080128;-0,08209479
0,60096512;-0,08209479
0,60112896;0,00762963
0,60129280;0,00762963
0,60145664;0,00762963
0,60162048;0,00762963
0,60178432;0,00762963
0,60194816;0,00762963
0,60211200;0,00762963
0,60227584;0,00762963
0,60243968;0,00762963
0,60260352;0,00762963
0,60276736;0,18707850
0,60293120;0,36652730
0,60309504;0,72573020
0,60325888;1,08493300
0,60342272;1,62389000
0,60358656;1,98309300
0,60375040;2,52174400
0,60391424;2,88094700
0,60407808;3,41990400
0,60424192;3,86883100
0,60440576;4,31775900
0,60456960;4,76699100
0,60473344;5,12619400
0,60489728;5,39536700
0,60506112;5,57512100
0,60522496;5,66484600
0,60538880;5,66484600
0,60555264;5,75457000
0,60571648;5,66484600
0,60588032;5,66484600
0,60604416;5,75457000
0,60620800;5,75457000
0,60637184;5,66484600
0,60653568;5,75457000
0,60669952;5,75457000
0,60686336;5,75457000
0,60702720;5,75457000
0,60719104;5,75457000
0,60735488;5,75457000
0,60751872;5,75457000
0,60768256;5,75457000
0,60784640;5,66484600
0,60801024;5,75457000
0,60817408;5,75457000
0,60833792;5,75457000
0,60850176;5,75457000
0,60866560;5,75457000
0,60882944;5,75457000
0,60899328;5,66484600
0,60915712;5,75457000
0,60932096;5,66484600
0,60948480;5,66484600
0,60964864;5,66484600
0,60981248;5,66484600
0,60997632;5,75457000
0,61014016;5,75457000
0,61030400;5,75457000
0,61046784;5,75457000
0,61063168;5,75457000
0,61079552;5,75457000
0,61095936;5,75457000
0,61112320;5,75457000
0,61128704;5,75457000
0,61145088;5,75457000
0,61161472;5,75457000
0,61177856;5,75457000
0,61194240;5,75457000
0,61210624;5,66484600
0,61227008;5,75457000
0,61243392;5,75457000
0,61259776;5,75457000
0,61276160;5,75457000
0,61292544;5,75457000
0,61308928;5,75457000
0,61325312;5,75457000
0,61341696;5,75457000
0,61358080;5,75457000
0,61374464;5,75457000
0,61390848;5,75457000
0,61407232;5,75457000
0,61423616;5,75457000
0,61440000;5,75457000
0,61456384;5,75457000
0,61472768;5,75457000
0,61489152;5,66484600
0,61505536;5,75457000
0,61521920;5,75457000
0,61538304;5,75457000
0,61554688;5,75457000
0,61571072;5,75457000
0,61587456;5,75457000
0,61603840;5,75457000
0,61620224;5,66484600
0,61636608;5,66484600
0,61652992;5,57512100
0,61669376;5,39536700
0,61685760;5,21591900
0,61702144;4,85671600
0,61718528;4,58723700
0,61734912;4,31775900
0,61751296;3,95855600
0,61767680;3,59935300
0,61784064;3,33018000
0,61800448;2,97097700
0,61816832;2,70149900
0,61833216;2,34229600
0,61849600;1,98309300
0,61865984;1,62389000
0,61882368;1,26468700
0,61898752;0,90548420
0,61915136;0,54628130
0,61931520;0,36652730
0,61947904;0,18707850
0,61964288;0,09735405
0,61980672;0,09735405
0,61997056;0,09735405
0,62013440;0,00762963
0,62029824;0,00762963
0,62046208;0,00762963
0,62062592;0,00762963
0,62078976;0,00762963
0,62095360;0,00762963
0,62111744;0,00762963
0,62128128;0,00762963
0,62144512;0,00762963
0,62160896;0,00762963
0,62177280;0,00762963
0,62193664;0,00762963
0,62210048;0,00762963
0,62226432;0,00762963
0,62242816;0,00762963
0,62259200;0,00762963
0,62275584;0,00762963
0,62291968;0,00762963
0,62308352;0,00762963
0,62324736;0,00762963
0,62341120;0,00762963
0,62357504;0,00762963
0,62373888;0,00762963
0,62390272;0,00762963
0,62406656;0,00762963
0,62423040;0,00762963
0,62439424;0,00762963
0,62455808;0,00762963
0,62472192;0,00762963
0,62488576;0,00762963
0,62504960;0,00762963
0,62521344;0,00762963
0,62537728;0,00762963
0,62554112;0,00762963
0,62570496;0,09735405
0,62586880;0,09735405
0,62603264;0,00762963
0,62619648;0,09735405
0,62636032;0,00762963
0,62652416;0,00762963
0,62668800;0,00762963
0,62685184;0,00762963
0,62701568;0,00762963
0,62717952;0,09735405
0,62734336;0,00762963
0,62750720;0,00762963
0,62767104;0,00762963
0,62783488;0,00762963
0,62799872;0,00762963
0,62816256;0,00762963
0,62832640;0,00762963
0,62849024;0,00762963
0,62865408;0,00762963
0,62881792;0,00762963
0,62898176;0,00762963
0,62914560;0,00762963
0,62930944;0,00762963
0,62947328;0,00762963
0,62963712;0,00762963
0,62980096;0,00762963
0,62996480;0,00762963
0,63012864;0,00762963
0,63029248;0,00762963
0,63045632;0,00762963
0,63062016;0,00762963
0,63078400;-0,08209479
0,63094784;0,00762963
0,63111168;0,00762963
0,63127552;-0,08209479
0,63143936;-0,08209479
0,63160320;-0,08209479
0,63176704;-0,08209479
0,63193088;-0,08209479
0,63209472;-0,08209479
0,63225856;-0,08209479
0,63242240;-0,08209479
0,63258624;-0,08209479
0,63275008;-0,08209479
0,63291392;-0,08209479
0,63307776;-0,08209479
0,63324160;-0,08209479
0,63340544;-0,08209479
0,63356928;-0,08209479
0,63373312;-0,17181920
0,63389696;-0,08209479
0,63406080;-0,17181920
0,63422464;-0,17181920
0,63438848;-0,08209479
0,63455232;-0,17181920
0,63471616;-0,08209479
0,63488000;-0,08209479
0,63504384;-0,08209479
0,63520768;-0,17181920
0,63537152;-0,08209479
0,63553536;-0,08209479
0,63569920;-0,08209479
0,63586304;0,00762963
0,63602688;0,00762963
0,63619072;0,00762963
0,63635456;0,00762963
0,63651840;0,00762963
0,63668224;0,00762963
0,63684608;0,00762963
0,63700992;0,09735405
0,63717376;0,18707850
0,63733760;0,54628130
0,63750144;0,90548420
0,63766528;1,26468700
0,63782912;1,71361400
0,63799296;2,16254200
0,63815680;2,70149900
0,63832064;3,06070100
0,63848448;3,59935300
0,63864832;3,95855600
0,63881216;4,49751300
0,63897600;4,94644000
0,63913984;5,30564300
0,63930368;5,48539700
0,63946752;5,57512100
0,63963136;5,66484600
0,63979520;5,66484600
0,63995904;5,75457000
0,64012288;5,75457000
0,64028672;5,75457000
0,64045056;5,75457000
0,64061440;5,75457000
0,64077824;5,75457000
0,64094208;5,75457000
0,64110592;5,75457000
0,64126976;5,66484600
0,64143360;5,75457000
0,64159744;5,75457000
0,64176128;5,75457000
0,64192512;5,75457000
0,64208896;5,75457000
0,64225280;5,75457000
0,64241664;5,75457000
0,64258048;5,75457000
0,64274432;5,75457000
0,64290816;5,75457000
0,64307200;5,66484600
0,64323584;5,75457000
0,64339968;5,75457000
0,64356352;5,75457000
0,64372736;5,75457000
0,64389120;5,75457000
0,64405504;5,66484600
0,64421888;5,66484600
0,64438272;5,75457000
0,64454656;5,75457000
0,64471040;5,66484600
0,64487424;5,75457000
0,64503808;5,75457000
0,64520192;5,75457000
0,64536576;5,75457000
0,64552960;5,75457000
0,64569344;5,66484600
0,64585728;5,75457000
0,64602112;5,75457000
0,64618496;5,75457000
0,64634880;5,75457000
0,64651264;5,75457000
0,64667648;5,75457000
0,64684032;5,75457000
0,64700416;5,75457000
0,64716800;5,75457000
0,64733184;5,75457000
0,64749568;5,75457000
0,64765952;5,75457000
0,64782336;5,75457000
0,64798720;5,75457000
0,64815104;5,75457000
0,64831488;5,75457000
0,64847872;5,75457000
0,64864256;5,75457000
0,64880640;5,66484600
0,64897024;5,66484600
0,64913408;5,75457000
0,64929792;5,66484600
0,64946176;5,75457000
0,64962560;5,75457000
0,64978944;5,75457000
0,64995328;5,66484600
0,65011712;5,66484600
0,65028096;5,75457000
0,65044480;5,66484600
0,65060864;5,66484600
0,65077248;5,66484600
0,65093632;5,48539700
0,65110016;5,30564300
0,65126400;4,94644000
0,65142784;4,67696100
0,65159168;4,31775900
0,65175552;4,04858500
0,65191936;3,77910700
0,65208320;3,41990400
0,65224704;3,06070100
0,65241088;2,70149900
0,65257472;2,43202000
0,65273856;2,07281700
0,65290240;1,71361400
0,65306624;1,26468700
0,65323008;0,99520860
0,65339392;0,63600580
0,65355776;0,45655690
0,65372160;0,18707850
0,65388544;0,18707850
0,65404928;0,09735405
0,65421312;0,00762963
0,65437696;0,00762963
0,65454080;0,00762963
0,65470464;0,00762963
0,65486848;0,00762963
0,65503232;0,00762963
0,65519616;0,00762963
0,65536000;0,00762963
0,65552384;0,00762963
0,65568768;0,00762963
0,65585152;0,00762963
0,65601536;-0,08209479
0,65617920;0,00762963
0,65634304;0,00762963
0,65650688;0,00762963
0,65667072;0,00762963
0,65683456;0,00762963
0,65699840;0,00762963
0,65716224;0,00762963
0,65732608;0,00762963
0,65748992;0,00762963
0,65765376;0,00762963
0,65781760;0,00762963
0,65798144;0,00762963
0,65814528;0,00762963
0,65830912;0,00762963
0,65847296;0,00762963
0,65863680;0,00762963
0,65880064;0,00762963
0,65896448;0,00762963
0,65912832;0,00762963
0,65929216;0,00762963
0,65945600;0,00762963
0,65961984;0,00762963
0,65978368;0,00762963
0,65994752;0,00762963
0,66011136;0,00762963
0,66027520;0,09735405
0,66043904;0,00762963
0,66060288;0,09735405
0,66076672;0,00762963
0,66093056;0,00762963
0,66109440;0,09735405
0,66125824;0,00762963
0,66142208;0,00762963
0,66158592;0,00762963
0,66174976;0,00762963
0,66191360;0,00762963
0,66207744;0,00762963
0,66224128;0,00762963
0,66240512;0,00762963
0,66256896;0,00762963
0,66273280;0,00762963
0,66289664;0,00762963
0,66306048;0,00762963
0,66322432;0,00762963
0,66338816;0,00762963
0,66355200;0,00762963
0,66371584;0,00762963
0,66387968;0,00762963
0,66404352;0,00762963
0,66420736;0,00762963
0,66437120;0,00762963
0,66453504;0,00762963
0,66469888;0,00762963
0,66486272;0,00762963
0,66502656;0,00762963
0,66519040;-0,08209479
0,66535424;0,00762963
0,66551808;0,00762963
0,66568192;0,00762963
0,66584576;-0,08209479
0,66600960;-0,08209479
0,66617344;0,00762963
0,66633728;-0,08209479
0,66650112;-0,08209479
0,66666496;-0,08209479
0,66682880;-0,08209479
0,66699264;-0,08209479
0,66715648;-0,08209479
0,66732032;-0,08209479
0,66748416;-0,08209479
0,66764800;-0,08209479
0,66781184;-0,08209479
0,66797568;-0,08209479
0,66813952;-0,08209479
0,66830336;-0,08209479
0,66846720;-0,08209479
0,66863104;-0,08209479
0,66879488;-0,17181920
0,66895872;-0,08209479
0,66912256;-0,17181920
0,66928640;-0,08209479
0,66945024;-0,08209479
0,66961408;-0,08209479
0,66977792;-0,08209479
0,66994176;-0,08209479
0,67010560;-0,08209479
0,67026944;-0,08209479
0,67043328;-0,08209479
0,67059712;0,00762963
0,67076096;0,00762963
0,67092480;-0,08209479
0,67108864;0,00762963
0,67125248;0,00762963
0,67141632;0,00762963
0,67158016;0,00762963
0,67174400;0,00762963
0,67190784;0,09735405
0,67207168;0,36652730
0,67223552;0,63600580
0,67239936;0,99520860
0,67256320;1,44413600
0,67272704;1,89336800
0,67289088;2,34229600
0,67305472;2,79122300
0,67321856;3,24015000
0,67338240;3,77910700
0,67354624;4,13831000
0,67371008;4,58723700
0,67387392;5,03616400
0,67403776;5,39536700
0,67420160;5,57512100
0,67436544;5,66484600
0,67452928;5,66484600
0,67469312;5,66484600
0,67485696;5,66484600
0,67502080;5,75457000
0,67518464;5,75457000
0,67534848;5,75457000
0,67551232;5,75457000
0,67567616;5,75457000
0,67584000;5,75457000
0,67600384;5,75457000
0,67616768;5,66484600
0,67633152;5,66484600
0,67649536;5,66484600
0,67665920;5,75457000
0,67682304;5,75457000
0,67698688;5,75457000
0,67715072;5,75457000
0,67731456;5,75457000
0,67747840;5,75457000
0,67764224;5,75457000
0,67780608;5,75457000
0,67796992;5,66484600
0,67813376;5,75457000
0,67829760;5,75457000
0,67846144;5,75457000
0,67862528;5,75457000
0,67878912;5,66484600
0,67895296;5,75457000
0,67911680;5,75457000
0,67928064;5,66484600
0,67944448;5,75457000
0,67960832;5,66484600
0,67977216;5,75457000
0,67993600;5,75457000
0,68009984;5,75457000
0,68026368;5,75457000
0,68042752;5,66484600
0,68059136;5,75457000
0,68075520;5,75457000
0,68091904;5,75457000
0,68108288;5,75457000
0,68124672;5,75457000
0,68141056;5,66484600
0,68157440;5,75457000
0,68173824;5,75457000
0,68190208;5,75457000
0,68206592;5,75457000
0,68222976;5,75457000
0,68239360;5,66484600
0,68255744;5,75457000
0,68272128;5,75457000
0,68288512;5,66484600
0,68304896;5,75457000
0,68321280;5,75457000
0,68337664;5,75457000
0,68354048;5,66484600
0,68370432;5,75457000
0,68386816;5,75457000
0,68403200;5,75457000
0,68419584;5,75457000
0,68435968;5,75457000
0,68452352;5,75457000
0,68468736;5,75457000
0,68485120;5,66484600
0,68501504;5,75457000
0,68517888;5,66484600
0,68534272;5,66484600
0,68550656;5,66484600
0,68567040;5,57512100
0,68583424;5,39536700
0,68599808;5,12619400
0,68616192;4,85671600
0,68632576;4,58723700
0,68648960;4,22803400
0,68665344;3,86883100
0,68681728;3,59935300
0,68698112;3,24015000
0,68714496;2,97097700
0,68730880;2,61177400
0,68747264;2,16254200
0,68763648;1,80333900
0,68780032;1,44413600
0,68796416;1,08493300
0,68812800;0,81575980
0,68829184;0,54628130
0,68845568;0,27680290
0,68861952;0,18707850
0,68878336;0,09735405
0,68894720;0,09735405
0,68911104;0,00762963
0,68927488;0,00762963
0,68943872;0,00762963
0,68960256;0,00762963
0,68976640;0,00762963
0,68993024;0,00762963
0,69009408;0,00762963
0,69025792;-0,08209479
0,69042176;0,00762963
0,69058560;0,00762963
0,69074944;0,00762963
0,69091328;0,00762963
0,69107712;0,00762963
0,69124096;0,00762963
0,69140480;0,00762963
0,69156864;0,00762963
0,69173248;0,00762963
0,69189632;0,00762963
0,69206016;0,00762963
0,69222400;0,00762963
0,69238784;0,00762963
0,69255168;0,00762963
0,69271552;0,00762963
0,69287936;0,00762963
0,69304320;0,00762963
0,69320704;0,00762963
0,69337088;-0,08209479
0,69353472;0,00762963
0,69369856;0,00762963
0,69386240;0,00762963
0,69402624;0,00762963
0,69419008;0,00762963
0,69435392;0,09735405
0,69451776;0,09735405
0,69468160;0,09735405
0,69484544;0,09735405
0,69500928;0,00762963
0,69517312;0,00762963
0,69533696;0,00762963
0,69550080;0,00762963
0,69566464;0,00762963
0,69582848;0,00762963
0,69599232;0,00762963
0,69615616;0,00762963
0,69632000;0,00762963
0,69648384;0,00762963
0,69664768;0,00762963
0,69681152;0,00762963
0,69697536;0,00762963
0,69713920;0,00762963
0,69730304;0,00762963
0,69746688;0,00762963
0,69763072;0,09735405
0,69779456;0,00762963
0,69795840;0,00762963
0,69812224;0,00762963
0,69828608;-0,08209479
0,69844992;0,00762963
0,69861376;0,00762963
0,69877760;0,00762963
0,69894144;0,00762963
0,69910528;0,00762963
0,69926912;-0,08209479
0,69943296;0,00762963
0,69959680;0,00762963
0,69976064;0,00762963
0,69992448;0,00762963
0,70008832;-0,08209479
0,70025216;-0,08209479
0,70041600;0,00762963
0,70057984;0,00762963
0,70074368;-0,08209479
0,70090752;-0,08209479
0,70107136;-0,08209479
0,70123520;-0,08209479
0,70139904;-0,08209479
0,70156288;-0,08209479
0,70172672;-0,08209479
0,70189056;-0,08209479
0,70205440;-0,08209479
0,70221824;-0,08209479
0,70238208;-0,08209479
0,70254592;-0,08209479
0,70270976;-0,08209479
0,70287360;-0,08209479
0,70303744;-0,08209479
0,70320128;-0,08209479
0,70336512;-0,08209479
0,70352896;-0,08209479
0,70369280;-0,08209479
0,70385664;0,00762963
0,70402048;0,00762963
0,70418432;0,00762963
0,70434816;0,00762963
0,70451200;0,00762963
0,70467584;0,00762963
0,70483968;0,00762963
0,70500352;0,00762963
0,70516736;0,00762963
0,70533120;0,09735405
0,70549504;0,27680290
0,70565888;0,54628130
0,70582272;0,99520860
0,70598656;1,35441100
0,70615040;1,80333900
0,70631424;2,25257100
0,70647808;2,70149900
0,70664192;3,15042600
0,70680576;3,68938300
0,70696960;4,13831000
0,70713344;4,58723700
0,70729728;4,94644000
0,70746112;5,30564300
0,70762496;5,48539700
0,70778880;5,57512100
0,70795264;5,66484600
0,70811648;5,75457000
0,70828032;5,66484600
0,70844416;5,66484600
0,70860800;5,75457000
0,70877184;5,66484600
0,70893568;5,75457000
0,70909952;5,75457000
0,70926336;5,75457000
0,70942720;5,75457000
0,70959104;5,75457000
0,70975488;5,75457000
0,70991872;5,75457000
0,71008256;5,75457000
0,71024640;5,75457000
0,71041024;5,75457000
0,71057408;5,75457000
0,71073792;5,75457000
0,71090176;5,66484600
0,71106560;5,75457000
0,71122944;5,75457000
0,71139328;5,66484600
0,71155712;5,75457000
0,71172096;5,75457000
0,71188480;5,75457000
0,71204864;5,75457000
0,71221248;5,66484600
0,71237632;5,75457000
0,71254016;5,75457000
0,71270400;5,75457000
0,71286784;5,75457000
0,71303168;5,75457000
0,71319552;5,75457000
0,71335936;5,75457000
0,71352320;5,75457000
0,71368704;5,66484600
0,71385088;5,66484600
0,71401472;5,66484600
0,71417856;5,75457000
0,71434240;5,75457000
0,71450624;5,66484600
0,71467008;5,75457000
0,71483392;5,75457000
0,71499776;5,75457000
0,71516160;5,75457000
0,71532544;5,66484600
0,71548928;5,75457000
0,71565312;5,66484600
0,71581696;5,75457000
0,71598080;5,75457000
0,71614464;5,75457000
0,71630848;5,75457000
0,71647232;5,75457000
0,71663616;5,66484600
0,71680000;5,75457000
0,71696384;5,75457000
0,71712768;5,75457000
0,71729152;5,66484600
0,71745536;5,75457000
0,71761920;5,75457000
0,71778304;5,75457000
0,71794688;5,75457000
0,71811072;5,75457000
0,71827456;5,66484600
0,71843840;5,75457000
0,71860224;5,75457000
0,71876608;5,75457000
0,71892992;5,66484600
0,71909376;5,57512100
0,71925760;5,48539700
0,71942144;5,30564300
0,71958528;5,03616400
0,71974912;4,67696100
0,71991296;4,40778800
0,72007680;4,13831000
0,72024064;3,77910700
0,72040448;3,50962900
0,72056832;3,06070100
0,72073216;2,79122300
0,72089600;2,43202000
0,72105984;2,07281700
0,72122368;1,71361400
0,72138752;1,35441100
0,72155136;0,99520860
0,72171520;0,63600580
0,72187904;0,36652730
0,72204288;0,27680290
0,72220672;0,18707850
0,72237056;0,09735405
0,72253440;0,00762963
0,72269824;0,00762963
0,72286208;0,00762963
0,72302592;0,00762963
0,72318976;0,00762963
0,72335360;0,00762963
0,72351744;0,00762963
0,72368128;0,00762963
0,72384512;0,00762963
0,72400896;0,00762963
0,72417280;0,00762963
0,72433664;0,00762963
0,72450048;0,00762963
0,72466432;0,00762963
0,72482816;0,00762963
0,72499200;-0,08209479
0,72515584;0,00762963
0,72531968;0,00762963
0,72548352;0,00762963
0,72564736;0,00762963
0,72581120;0,00762963
0,72597504;0,00762963
0,72613888;0,00762963
0,72630272;0,00762963
0,72646656;0,00762963
0,72663040;0,00762963
0,72679424;0,00762963
0,72695808;0,00762963
0,72712192;0,00762963
0,72728576;0,00762963
0,72744960;0,00762963
0,72761344;0,00762963
0,72777728;0,00762963
0,72794112;0,00762963
0,72810496;0,00762963
0,72826880;0,00762963
0,72843264;0,00762963
0,72859648;0,00762963
0,72876032;0,00762963
0,72892416;0,00762963
0,72908800;0,00762963
0,72925184;0,09735405
0,72941568;0,00762963
0,72957952;0,09735405
0,72974336;0,00762963
0,72990720;0,00762963
0,73007104;0,00762963
0,73023488;0,00762963
0,73039872;0,00762963
0,73056256;0,00762963
0,73072640;0,00762963
0,73089024;0,00762963
0,73105408;0,00762963
0,73121792;0,00762963
0,73138176;0,00762963
0,73154560;0,00762963
0,73170944;0,00762963
0,73187328;0,00762963
0,73203712;0,00762963
0,73220096;-0,08209479
0,73236480;0,00762963
0,73252864;0,00762963
0,73269248;-0,08209479
0,73285632;-0,08209479
0,73302016;0,00762963
0,73318400;-0,08209479
0,73334784;-0,08209479
0,73351168;-0,08209479
0,73367552;0,00762963
0,73383936;-0,08209479
0,73400320;-0,08209479
0,73416704;-0,08209479
0,73433088;-0,08209479
0,73449472;-0,08209479
0,73465856;-0,08209479
0,73482240;-0,08209479
0,73498624;-0,08209479
0,73515008;-0,08209479
0,73531392;-0,08209479
0,73547776;-0,08209479
0,73564160;-0,08209479
0,73580544;-0,08209479
0,73596928;-0,08209479
0,73613312;-0,17181920
0,73629696;-0,08209479
0,73646080;-0,08209479
0,73662464;-0,08209479
0,73678848;-0,08209479
0,73695232;-0,08209479
0,73711616;-0,08209479
0,73728000;-0,17181920
0,73744384;-0,17181920
0,73760768;-0,17181920
0,73777152;-0,08209479
0,73793536;-0,08209479
0,73809920;-0,08209479
0,73826304;-0,08209479
0,73842688;0,00762963
0,73859072;0,00762963
0,73875456;0,00762963
0,73891840;0,00762963
0,73908224;0,00762963
0,73924608;0,00762963
0,73940992;0,00762963
0,73957376;0,00762963
0,73973760;0,18707850
0,73990144;0,45655690
0,74006528;0,72573020
0,74022912;1,17496300
0,74039296;1,62389000
0,74055680;1,98309300
0,74072064;2,52174400
0,74088448;2,97097700
0,74104832;3,41990400
0,74121216;3,86883100
0,74137600;4,31775900
0,74153984;4,76699100
0,74170368;5,21591900
0,74186752;5,39536700
0,74203136;5,57512100
0,74219520;5,66484600
0,74235904;5,66484600
0,74252288;5,66484600
0,74268672;5,66484600
0,74285056;5,66484600
0,74301440;5,66484600
0,74317824;5,75457000
0,74334208;5,75457000
0,74350592;5,75457000
0,74366976;5,75457000
0,74383360;5,75457000
0,74399744;5,75457000
0,74416128;5,75457000
0,74432512;5,75457000
0,74448896;5,75457000
0,74465280;5,75457000
0,74481664;5,75457000
0,74498048;5,75457000
0,74514432;5,75457000
0,74530816;5,75457000
0,74547200;5,75457000
0,74563584;5,75457000
0,74579968;5,75457000
0,74596352;5,75457000
0,74612736;5,75457000
0,74629120;5,66484600
0,74645504;5,66484600
0,74661888;5,75457000
0,74678272;5,75457000
0,74694656;5,66484600
0,74711040;5,75457000
0,74727424;5,66484600
0,74743808;5,75457000
0,74760192;5,75457000
0,74776576;5,75457000
0,74792960;5,66484600
0,74809344;5,75457000
0,74825728;5,75457000
0,74842112;5,75457000
0,74858496;5,75457000
0,74874880;5,66484600
0,74891264;5,75457000
0,74907648;5,75457000
0,74924032;5,75457000
0,74940416;5,75457000
0,74956800;5,66484600
0,74973184;5,66484600
0,74989568;5,66484600
0,75005952;5,75457000
0,75022336;5,66484600
0,75038720;5,75457000
0,75055104;5,75457000
0,75071488;5,75457000
0,75087872;5,75457000
0,75104256;5,66484600
0,75120640;5,66484600
0,75137024;5,75457000
0,75153408;5,75457000
0,75169792;5,75457000
0,75186176;5,66484600
0,75202560;5,75457000
0,75218944;5,75457000
0,75235328;5,75457000
0,75251712;5,75457000
0,75268096;5,75457000
0,75284480;5,75457000
0,75300864;5,66484600
0,75317248;5,66484600
0,75333632;5,66484600
0,75350016;5,48539700
0,75366400;5,30564300
0,75382784;5,03616400
0,75399168;4,76699100
0,75415552;4,49751300
0,75431936;4,13831000
0,75448320;3,86883100
0,75464704;3,50962900
0,75481088;3,15042600
0,75497472;2,88094700
0,75513856;2,52174400
0,75530240;2,16254200
0,75546624;1,80333900
0,75563008;1,44413600
0,75579392;1,08493300
0,75595776;0,72573020
0,75612160;0,45655690
0,75628544;0,27680290
0,75644928;0,18707850
0,75661312;0,09735405
0,75677696;0,00762963
0,75694080;0,00762963
0,75710464;0,00762963
0,75726848;0,00762963
0,75743232;0,00762963
0,75759616;0,00762963
0,75776000;-0,08209479
0,75792384;0,00762963
0,75808768;0,00762963
0,75825152;0,00762963
0,75841536;0,00762963
0,75857920;0,00762963
0,75874304;0,00762963
0,75890688;-0,08209479
0,75907072;0,00762963
0,75923456;0,00762963
0,75939840;0,00762963
0,75956224;0,00762963
0,75972608;0,00762963
0,75988992;0,00762963
0,76005376;0,00762963
0,76021760;0,00762963
0,76038144;0,00762963
0,76054528;0,00762963
0,76070912;0,00762963
0,76087296;-0,08209479
0,76103680;0,00762963
0,76120064;0,00762963
0,76136448;0,00762963
0,76152832;0,00762963
0,76169216;0,00762963
0,76185600;0,00762963
0,76201984;0,00762963
0,76218368;0,00762963
0,76234752;0,00762963
0,76251136;0,00762963
0,76267520;0,00762963
0,76283904;0,09735405
0,76300288;0,09735405
0,76316672;0,09735405
0,76333056;0,00762963
0,76349440;0,09735405
0,76365824;0,00762963
0,76382208;0,09735405
0,76398592;0,00762963
0,76414976;0,00762963
0,76431360;0,00762963
0,76447744;0,00762963
0,76464128;0,00762963
0,76480512;0,00762963
0,76496896;0,00762963
0,76513280;0,00762963
0,76529664;0,00762963
0,76546048;0,00762963
0,76562432;0,00762963
0,76578816;0,00762963
0,76595200;0,00762963
0,76611584;0,00762963
0,76627968;0,00762963
0,76644352;0,00762963
0,76660736;0,00762963
0,76677120;0,00762963
0,76693504;0,00762963
0,76709888;0,00762963
0,76726272;0,00762963
0,76742656;0,00762963
0,76759040;0,00762963
0,76775424;0,00762963
0,76791808;0,00762963
0,76808192;-0,08209479
0,76824576;-0,08209479
0,76840960;0,00762963
0,76857344;0,00762963
0,76873728;-0,08209479
0,76890112;-0,08209479
0,76906496;-0,08209479
0,76922880;-0,08209479
0,76939264;-0,08209479
0,76955648;-0,08209479
0,76972032;-0,08209479
0,76988416;-0,08209479
0,77004800;-0,08209479
0,77021184;-0,08209479
0,77037568;-0,08209479
0,77053952;-0,08209479
0,77070336;-0,08209479
0,77086720;-0,08209479
0,77103104;-0,08209479
0,77119488;-0,08209479
0,77135872;-0,08209479
0,77152256;-0,08209479
0,77168640;-0,08209479
0,77185024;-0,08209479
0,77201408;-0,08209479
0,77217792;-0,08209479
0,77234176;-0,08209479
0,77250560;-0,08209479
0,77266944;-0,08209479
0,77283328;-0,17181920
0,77299712;-0,08209479
0,77316096;-0,08209479
0,77332480;-0,08209479
0,77348864;-0,08209479
0,77365248;0,00762963
0,77381632;0,00762963
0,77398016;0,00762963
0,77414400;0,00762963
0,77430784;0,00762963
0,77447168;0,09735405
0,77463552;0,27680290
0,77479936;0,54628130
0,77496320;0,90548420
0,77512704;1,35441100
0,77529088;1,80333900
0,77545472;2,25257100
0,77561856;2,70149900
0,77578240;3,15042600
0,77594624;3,59935300
0,77611008;4,04858500
0,77627392;4,58723700
0,77643776;4,94644000
0,77660160;5,30564300
0,77676544;5,57512100
0,77692928;5,57512100
0,77709312;5,66484600
0,77725696;5,66484600
0,77742080;5,66484600
0,77758464;5,66484600
0,77774848;5,75457000
0,77791232;5,75457000
0,77807616;5,75457000
0,77824000;5,75457000
0,77840384;5,75457000
0,77856768;5,75457000
0,77873152;5,75457000
0,77889536;5,75457000
0,77905920;5,75457000
0,77922304;5,75457000
0,77938688;5,75457000
0,77955072;5,75457000
0,77971456;5,75457000
0,77987840;5,75457000
0,78004224;5,75457000
0,78020608;5,75457000
0,78036992;5,75457000
0,78053376;5,75457000
0,78069760;5,75457000
0,78086144;5,75457000
0,78102528;5,75457000
0,78118912;5,75457000
0,78135296;5,66484600
0,78151680;5,66484600
0,78168064;5,75457000
0,78184448;5,75457000
0,78200832;5,66484600
0,78217216;5,75457000
0,78233600;5,75457000
0,78249984;5,75457000
0,78266368;5,75457000
0,78282752;5,66484600
0,78299136;5,75457000
0,78315520;5,66484600
0,78331904;5,75457000
0,78348288;5,75457000
0,78364672;5,75457000
0,78381056;5,75457000
0,78397440;5,66484600
0,78413824;5,75457000
0,78430208;5,75457000
0,78446592;5,75457000
0,78462976;5,75457000
0,78479360;5,66484600
0,78495744;5,75457000
0,78512128;5,66484600
0,78528512;5,75457000
0,78544896;5,75457000
0,78561280;5,75457000
0,78577664;5,75457000
0,78594048;5,75457000
0,78610432;5,75457000
0,78626816;5,75457000
0,78643200;5,75457000
0,78659584;5,75457000
0,78675968;5,75457000
0,78692352;5,75457000
0,78708736;5,75457000
0,78725120;5,75457000
0,78741504;5,66484600
0,78757888;5,66484600
0,78774272;5,75457000
0,78790656;5,66484600
0,78807040;5,66484600
0,78823424;5,57512100
0,78839808;5,48539700
0,78856192;5,21591900
0,78872576;4,85671600
0,78888960;4,58723700
0,78905344;4,22803400
0,78921728;3,95855600
0,78938112;3,68938300
0,78954496;3,33018000
0,78970880;2,97097700
0,78987264;2,70149900
0,79003648;2,34229600
0,79020032;1,98309300
0,79036416;1,53416600
0,79052800;1,17496300
0,79069184;0,81575980
0,79085568;0,54628130
0,79101952;0,36652730
0,79118336;0,18707850
0,79134720;0,18707850
0,79151104;0,00762963
0,79167488;0,09735405
0,79183872;0,00762963
0,79200256;0,00762963
0,79216640;0,00762963
0,79233024;0,00762963
0,79249408;0,00762963
0,79265792;0,00762963
0,79282176;0,00762963
0,79298560;0,00762963
0,79314944;0,00762963
0,79331328;0,00762963
0,79347712;0,00762963
0,79364096;0,00762963
0,79380480;0,00762963
0,79396864;0,00762963
0,79413248;0,00762963
0,79429632;0,00762963
0,79446016;0,00762963
0,79462400;0,00762963
0,79478784;0,00762963
0,79495168;0,00762963
0,79511552;0,00762963
0,79527936;0,00762963
0,79544320;0,00762963
0,79560704;0,00762963
0,79577088;0,00762963
0,79593472;0,00762963
0,79609856;0,00762963
0,79626240;0,00762963
0,79642624;0,00762963
0,79659008;0,09735405
0,79675392;0,00762963
0,79691776;0,09735405
0,79708160;0,00762963
0,79724544;0,09735405
0,79740928;0,09735405
0,79757312;0,00762963
0,79773696;0,00762963
0,79790080;0,09735405
0,79806464;0,09735405
0,79822848;0,00762963
0,79839232;0,00762963
0,79855616;0,00762963
0,79872000;0,09735405
0,79888384;0,00762963
0,79904768;0,00762963
0,79921152;0,00762963
0,79937536;0,00762963
0,79953920;0,00762963
0,79970304;0,00762963
0,79986688;0,00762963
0,80003072;0,00762963
0,80019456;0,00762963
0,80035840;0,00762963
0,80052224;0,00762963
0,80068608;0,00762963
0,80084992;0,00762963
0,80101376;0,00762963
0,80117760;0,00762963
0,80134144;0,00762963
0,80150528;0,00762963
0,80166912;0,00762963
0,80183296;-0,08209479
0,80199680;-0,08209479
0,80216064;0,00762963
0,80232448;0,00762963
0,80248832;0,00762963
0,80265216;-0,08209479
0,80281600;-0,08209479
0,80297984;0,00762963
0,80314368;-0,08209479
0,80330752;-0,08209479
0,80347136;-0,08209479
0,80363520;-0,08209479
0,80379904;-0,08209479
0,80396288;-0,08209479
0,80412672;-0,08209479
0,80429056;-0,08209479
0,80445440;-0,08209479
0,80461824;-0,08209479
0,80478208;0,00762963
0,80494592;-0,08209479
0,80510976;-0,08209479
0,80527360;-0,08209479
0,80543744;-0,08209479
0,80560128;-0,08209479
0,80576512;-0,08209479
0,80592896;-0,08209479
0,80609280;-0,08209479
0,80625664;-0,08209479
0,80642048;0,00762963
0,80658432;0,00762963
0,80674816;0,00762963
0,80691200;0,00762963
0,80707584;0,00762963
0,80723968;0,00762963
0,80740352;-0,08209479
0,80756736;0,00762963
0,80773120;0,00762963
0,80789504;0,09735405
0,80805888;0,27680290
0,80822272;0,54628130
0,80838656;0,90548420
0,80855040;1,35441100
0,80871424;1,71361400
0,80887808;2,16254200
0,80904192;2,70149900
0,80920576;3,15042600
0,80936960;3,59935300
0,80953344;4,04858500
0,80969728;4,49751300
0,80986112;4,94644000
0,81002496;5,30564300
0,81018880;5,48539700
0,81035264;5,66484600
0,81051648;5,66484600
0,81068032;5,66484600
0,81084416;5,66484600
0,81100800;5,66484600
0,81117184;5,75457000
0,81133568;5,75457000
0,81149952;5,75457000
0,81166336;5,75457000
0,81182720;5,75457000
0,81199104;5,75457000
0,81215488;5,75457000
0,81231872;5,75457000
0,81248256;5,75457000
0,81264640;5,75457000
0,81281024;5,75457000
0,81297408;5,75457000
0,81313792;5,75457000
0,81330176;5,66484600
0,81346560;5,75457000
0,81362944;5,75457000
0,81379328;5,75457000
0,81395712;5,75457000
0,81412096;5,75457000
0,81428480;5,75457000
0,81444864;5,75457000
0,81461248;5,66484600
0,81477632;5,66484600
0,81494016;5,75457000
0,81510400;5,66484600
0,81526784;5,75457000
0,81543168;5,75457000
0,81559552;5,75457000
0,81575936;5,75457000
0,81592320;5,75457000
0,81608704;5,75457000
0,81625088;5,75457000
0,81641472;5,75457000
0,81657856;5,75457000
0,81674240;5,66484600
0,81690624;5,75457000
0,81707008;5,75457000
0,81723392;5,66484600
0,81739776;5,75457000
0,81756160;5,66484600
0,81772544;5,75457000
0,81788928;5,66484600
0,81805312;5,75457000
0,81821696;5,75457000
0,81838080;5,75457000
0,81854464;5,75457000
0,81870848;5,75457000
0,81887232;5,75457000
0,81903616;5,75457000
0,81920000;5,75457000
0,81936384;5,75457000
0,81952768;5,75457000
0,81969152;5,75457000
0,81985536;5,75457000
0,82001920;5,75457000
0,82018304;5,75457000
0,82034688;5,75457000
0,82051072;5,66484600
0,82067456;5,75457000
0,82083840;5,75457000
0,82100224;5,75457000
0,82116608;5,75457000
0,82132992;5,66484600
0,82149376;5,66484600
0,82165760;5,66484600
0,82182144;5,57512100
0,82198528;5,30564300
0,82214912;5,03616400
0,82231296;4,76699100
0,82247680;4,40778800
0,82264064;4,13831000
0,82280447;3,77910700
0,82296831;3,50962900
0,82313215;3,15042600
0,82329599;2,79122300
0,82345983;2,52174400
0,82362367;2,07281700
0,82378751;1,80333900
0,82395135;1,35441100
0,82411519;1,08493300
0,82427903;0,72573020
0,82444287;0,45655690
0,82460671;0,27680290
0,82477055;0,18707850
0,82493439;0,09735405
0,82509823;0,09735405
0,82526207;0,09735405
0,82542591;0,00762963
0,82558975;0,00762963
0,82575359;0,00762963
0,82591743;0,00762963
0,82608127;0,00762963
0,82624511;0,00762963
0,82640895;0,00762963
0,82657279;0,00762963
0,82673663;0,00762963
0,82690047;0,00762963
0,82706431;0,00762963
0,82722815;0,00762963
0,82739199;0,00762963
0,82755583;0,00762963
0,82771967;0,00762963
0,82788351;0,00762963
0,82804735;0,00762963
0,82821119;0,00762963
0,82837503;0,00762963
0,82853887;0,00762963
0,82870271;0,00762963
0,82886655;0,00762963
0,82903039;-0,08209479
0,82919423;0,00762963
0,82935807;0,00762963
0,82952191;0,00762963
0,82968575;0,00762963
0,82984959;0,00762963
0,83001343;0,00762963
0,83017727;0,00762963
0,83034111;0,00762963
0,83050495;0,09735405
0,83066879;0,00762963
0,83083263;0,00762963
0,83099647;0,09735405
0,83116031;0,09735405
0,83132415;0,00762963
0,83148799;0,00762963
0,83165183;0,09735405
0,83181567;0,00762963
0,83197951;0,00762963
0,83214335;0,00762963
0,83230719;0,00762963
0,83247103;0,00762963
0,83263487;0,00762963
0,83279871;0,09735405
0,83296255;0,00762963
0,83312639;0,00762963
0,83329023;0,00762963
0,83345407;0,00762963
0,83361791;0,00762963
0,83378175;0,00762963
0,83394559;0,00762963
0,83410943;0,00762963
0,83427327;0,00762963
0,83443711;0,00762963
0,83460095;0,00762963
0,83476479;0,00762963
0,83492863;0,00762963
0,83509247;0,00762963
0,83525631;-0,08209479
0,83542015;0,00762963
0,83558399;0,00762963
0,83574783;-0,08209479
0,83591167;0,00762963
0,83607551;-0,08209479
0,83623935;-0,08209479
0,83640319;-0,08209479
0,83656703;-0,08209479
0,83673087;-0,08209479
0,83689471;-0,08209479
0,83705855;-0,08209479
0,83722239;-0,08209479
0,83738623;-0,08209479
0,83755007;-0,08209479
0,83771391;-0,08209479
0,83787775;-0,08209479
0,83804159;-0,08209479
0,83820543;-0,08209479
0,83836927;-0,08209479
0,83853311;-0,08209479
0,83869695;-0,08209479
0,83886079;-0,17181920
0,83902463;-0,08209479
0,83918847;-0,08209479
0,83935231;-0,08209479
0,83951615;-0,17181920
0,83967999;-0,08209479
0,83984383;-0,08209479
0,84000767;-0,17181920
0,84017151;-0,08209479
0,84033535;-0,08209479
0,84049919;-0,08209479
0,84066303;-0,08209479
0,84082687;-0,08209479
0,84099071;-0,08209479
0,84115455;0,00762963
0,84131839;0,00762963
0,84148223;0,00762963
0,84164607;-0,08209479
0,84180991;0,00762963
0,84197375;0,00762963
0,84213759;0,00762963
0,84230143;0,18707850
0,84246527;0,45655690
0,84262911;0,81575980
0,84279295;1,17496300
0,84295679;1,62389000
0,84312063;2,07281700
0,84328447;2,52174400
0,84344831;2,97097700
0,84361215;3,41990400
0,84377599;3,86883100
0,84393983;4,31775900
0,84410367;4,85671600
0,84426751;5,21591900
0,84443135;5,48539700
0,84459519;5,57512100
0,84475903;5,66484600
0,84492287;5,66484600
0,84508671;5,66484600
0,84525055;5,66484600
0,84541439;5,75457000
0,84557823;5,75457000
0,84574207;5,75457000
0,84590591;5,66484600
0,84606975;5,75457000
0,84623359;5,66484600
0,84639743;5,75457000
0,84656127;5,75457000
0,84672511;5,75457000
0,84688895;5,75457000
0,84705279;5,75457000
0,84721663;5,75457000
0,84738047;5,66484600
0,84754431;5,66484600
0,84770815;5,75457000
0,84787199;5,66484600
0,84803583;5,75457000
0,84819967;5,75457000
0,84836351;5,75457000
0,84852735;5,75457000
0,84869119;5,75457000
0,84885503;5,75457000
0,84901887;5,66484600
0,84918271;5,66484600
0,84934655;5,75457000
0,84951039;5,75457000
0,84967423;5,75457000
0,84983807;5,75457000
0,85000191;5,75457000
0,85016575;5,66484600
0,85032959;5,66484600
0,85049343;5,75457000
0,85065727;5,66484600
0,85082111;5,66484600
0,85098495;5,75457000
0,85114879;5,75457000
0,85131263;5,75457000
0,85147647;5,75457000
0,85164031;5,66484600
0,85180415;5,75457000
0,85196799;5,75457000
0,85213183;5,66484600
0,85229567;5,66484600
0,85245951;5,66484600
0,85262335;5,75457000
0,85278719;5,75457000
0,85295103;5,75457000
0,85311487;5,75457000
0,85327871;5,66484600
0,85344255;5,75457000
0,85360639;5,75457000
0,85377023;5,75457000
0,85393407;5,75457000
0,85409791;5,75457000
0,85426175;5,75457000
0,85442559;5,75457000
0,85458943;5,75457000
0,85475327;5,75457000
0,85491711;5,75457000
0,85508095;5,75457000
0,85524479;5,75457000
0,85540863;5,75457000
0,85557247;5,75457000
0,85573631;5,66484600
0,85590015;5,66484600
0,85606399;5,57512100
0,85622783;5,39536700
0,85639167;5,12619400
0,85655551;4,85671600
0,85671935;4,49751300
0,85688319;4,13831000
0,85704703;3,86883100
0,85721087;3,59935300
0,85737471;3,24015000
0,85753855;2,88094700
0,85770239;2,52174400
0,85786623;2,25257100
0,85803007;1,89336800
0,85819391;1,44413600
0,85835775;1,17496300
0,85852159;0,81575980
0,85868543;0,54628130
0,85884927;0,36652730
0,85901311;0,18707850
0,85917695;0,09735405
0,85934079;0,09735405
0,85950463;0,00762963
0,85966847;0,00762963
0,85983231;0,00762963
0,85999615;0,00762963
0,86015999;0,00762963
0,86032383;0,00762963
0,86048767;0,00762963
0,86065151;0,00762963
0,86081535;0,00762963
0,86097919;0,00762963
0,86114303;0,00762963
0,86130687;-0,08209479
0,86147071;0,00762963
0,86163455;0,00762963
0,86179839;0,00762963
0,86196223;0,00762963
0,86212607;0,00762963
0,86228991;-0,08209479
0,86245375;0,00762963
0,86261759;0,00762963
0,86278143;0,00762963
0,86294527;0,00762963
0,86310911;0,00762963
0,86327295;0,00762963
0,86343679;0,00762963
0,86360063;-0,08209479
0,86376447;0,00762963
0,86392831;0,00762963
0,86409215;0,00762963
0,86425599;0,00762963
0,86441983;0,00762963
0,86458367;0,00762963
0,86474751;0,00762963
0,86491135;0,00762963
0,86507519;0,00762963
0,86523903;0,00762963
0,86540287;0,09735405
0,86556671;0,00762963
0,86573055;0,09735405
0,86589439;0,00762963
0,86605823;0,00762963
0,86622207;0,09735405
0,86638591;0,09735405
0,86654975;0,00762963
0,86671359;0,00762963
0,86687743;0,09735405
0,86704127;0,00762963
0,86720511;0,00762963
0,86736895;0,00762963
0,86753279;0,00762963
0,86769663;0,00762963
0,86786047;0,00762963
0,86802431;0,00762963
0,86818815;0,00762963
0,86835199;0,00762963
0,86851583;0,00762963
0,86867967;0,09735405
0,86884351;0,00762963
0,86900735;0,00762963
0,86917119;0,00762963
0,86933503;0,00762963
0,86949887;0,00762963
0,86966271;-0,08209479
0,86982655;0,00762963
0,86999039;-0,08209479
0,87015423;0,00762963
0,87031807;-0,08209479
0,87048191;-0,08209479
0,87064575;0,00762963
0,87080959;-0,08209479
0,87097343;-0,08209479
0,87113727;-0,08209479
0,87130111;-0,08209479
0,87146495;-0,08209479
0,87162879;-0,08209479
0,87179263;-0,08209479
0,87195647;-0,08209479
0,87212031;-0,08209479
0,87228415;-0,08209479
0,87244799;-0,08209479
0,87261183;-0,08209479
0,87277567;-0,08209479
0,87293951;-0,08209479
0,87310335;-0,08209479
0,87326719;-0,08209479
0,87343103;-0,08209479
0,87359487;-0,17181920
0,87375871;-0,08209479
0,87392255;-0,08209479
0,87408639;-0,08209479
0,87425023;-0,08209479
0,87441407;-0,08209479
0,87457791;-0,08209479
0,87474175;-0,17181920
0,87490559;-0,08209479
0,87506943;-0,17181920
0,87523327;-0,08209479
0,87539711;-0,17181920
0,87556095;-0,08209479
0,87572479;-0,08209479
0,87588863;-0,08209479
0,87605247;0,00762963
0,87621631;0,00762963
0,87638015;0,00762963
0,87654399;0,00762963
0,87670783;0,00762963
0,87687167;0,00762963
0,87703551;0,09735405
0,87719935;0,27680290
0,87736319;0,54628130
0,87752703;0,99520860
0,87769087;1,35441100
0,87785471;1,80333900
0,87801855;2,25257100
0,87818239;2,70149900
0,87834623;3,24015000
0,87851007;3,68938300
0,87867391;4,13831000
0,87883775;4,58723700
0,87900159;4,94644000
0,87916543;5,30564300
0,87932927;5,57512100
0,87949311;5,66484600
0,87965695;5,66484600
0,87982079;5,66484600
0,87998463;5,75457000
0,88014847;5,75457000
0,88031231;5,75457000
0,88047615;5,75457000
0,88063999;5,75457000
0,88080383;5,75457000
0,88096767;5,75457000
0,88113151;5,75457000
0,88129535;5,75457000
0,88145919;5,75457000
0,88162303;5,75457000
0,88178687;5,75457000
0,88195071;5,66484600
0,88211455;5,75457000
0,88227839;5,75457000
0,88244223;5,75457000
0,88260607;5,75457000
0,88276991;5,75457000
0,88293375;5,75457000
0,88309759;5,66484600
0,88326143;5,75457000
0,88342527;5,75457000
0,88358911;5,75457000
0,88375295;5,75457000
0,88391679;5,75457000
0,88408063;5,75457000
0,88424447;5,75457000
0,88440831;5,75457000
0,88457215;5,75457000
0,88473599;5,66484600
0,88489983;5,66484600
0,88506367;5,75457000
0,88522751;5,75457000
0,88539135;5,66484600
0,88555519;5,66484600
0,88571903;5,75457000
0,88588287;5,75457000
0,88604671;5,66484600
0,88621055;5,75457000
0,88637439;5,75457000
0,88653823;5,75457000
0,88670207;5,66484600
0,88686591;5,75457000
0,88702975;5,66484600
0,88719359;5,66484600
0,88735743;5,75457000
0,88752127;5,75457000
0,88768511;5,66484600
0,88784895;5,66484600
0,88801279;5,75457000
0,88817663;5,66484600
0,88834047;5,75457000
0,88850431;5,75457000
0,88866815;5,75457000
0,88883199;5,75457000
0,88899583;5,75457000
0,88915967;5,75457000
0,88932351;5,66484600
0,88948735;5,75457000
0,88965119;5,75457000
0,88981503;5,75457000
0,88997887;5,66484600
0,89014271;5,66484600
0,89030655;5,66484600
0,89047039;5,75457000
0,89063423;5,66484600
0,89079807;5,57512100
0,89096191;5,39536700
0,89112575;5,21591900
0,89128959;4,85671600
0,89145343;4,58723700
0,89161727;4,22803400
0,89178111;3,95855600
0,89194495;3,68938300
0,89210879;3,33018000
0,89227263;3,06070100
0,89243647;2,70149900
0,89260031;2,25257100
0,89276415;1,98309300
0,89292799;1,62389000
0,89309183;1,17496300
0,89325567;0,81575980
0,89341951;0,54628130
0,89358335;0,27680290
0,89374719;0,18707850
0,89391103;0,09735405
0,89407487;0,09735405
0,89423871;0,00762963
0,89440255;0,00762963
0,89456639;0,00762963
0,89473023;0,00762963
0,89489407;0,00762963
0,89505791;0,00762963
0,89522175;0,00762963
0,89538559;0,00762963
0,89554943;0,00762963
0,89571327;0,00762963
0,89587711;0,00762963
0,89604095;0,00762963
0,89620479;0,00762963
0,89636863;0,00762963
0,89653247;0,00762963
0,89669631;0,00762963
0,89686015;0,00762963
0,89702399;0,00762963
0,89718783;0,00762963
0,89735167;0,00762963
0,89751551;0,00762963
0,89767935;0,00762963
0,89784319;0,00762963
0,89800703;0,00762963
0,89817087;0,00762963
0,89833471;0,00762963
0,89849855;0,00762963
0,89866239;0,00762963
0,89882623;0,00762963
0,89899007;0,00762963
0,89915391;0,00762963
0,89931775;0,00762963
0,89948159;0,00762963
0,89964543;0,00762963
0,89980927;0,09735405
0,89997311;0,09735405
0,90013695;0,00762963
0,90030079;0,00762963
0,90046463;0,00762963
0,90062847;0,09735405
0,90079231;0,00762963
0,90095615;0,00762963
0,90111999;0,00762963
0,90128383;0,00762963
0,90144767;0,00762963
0,90161151;0,00762963
0,90177535;0,00762963
0,90193919;0,00762963
0,90210303;0,00762963
0,90226687;0,00762963
0,90243071;0,00762963
0,90259455;0,00762963
0,90275839;0,00762963
0,90292223;0,00762963
0,90308607;0,00762963
0,90324991;0,00762963
0,90341375;0,00762963
0,90357759;0,00762963
0,90374143;0,00762963
0,90390527;0,00762963
0,90406911;0,00762963
0,90423295;-0,08209479
0,90439679;0,00762963
0,90456063;-0,08209479
0,90472447;-0,08209479
0,90488831;-0,08209479
0,90505215;-0,08209479
0,90521599;0,00762963
0,90537983;-0,08209479
0,90554367;-0,08209479
0,90570751;-0,08209479
0,90587135;-0,08209479
0,90603519;-0,08209479
0,90619903;-0,08209479
0,90636287;-0,08209479
0,90652671;-0,08209479
0,90669055;-0,08209479
0,90685439;-0,08209479
0,90701823;-0,08209479
0,90718207;-0,08209479
0,90734591;-0,08209479
0,90750975;-0,08209479
0,90767359;-0,08209479
0,90783743;-0,08209479
0,90800127;-0,08209479
0,90816511;-0,08209479
0,90832895;-0,08209479
0,90849279;-0,08209479
0,90865663;-0,08209479
0,90882047;-0,08209479
0,90898431;-0,08209479
0,90914815;-0,08209479
0,90931199;0,00762963
0,90947583;0,00762963
0,90963967;0,00762963
0,90980351;0,00762963
0,90996735;0,00762963
0,91013119;0,00762963
0,91029503;0,00762963
0,91045887;0,09735405
0,91062271;0,27680290
0,91078655;0,63600580
0,91095039;0,99520860
0,91111423;1,35441100
0,91127807;1,80333900
0,91144191;2,34229600
0,91160575;2,79122300
0,91176959;3,24015000
0,91193343;3,77910700
0,91209727;4,13831000
0,91226111;4,58723700
0,91242495;5,03616400
0,91258879;5,39536700
0,91275263;5,57512100
0,91291647;5,66484600
0,91308031;5,66484600
0,91324415;5,66484600
0,91340799;5,66484600
0,91357183;5,75457000
0,91373567;5,66484600
0,91389951;5,66484600
0,91406335;5,75457000
0,91422719;5,75457000
0,91439103;5,66484600
0,91455487;5,75457000
0,91471871;5,75457000
0,91488255;5,75457000
0,91504639;5,75457000
0,91521023;5,75457000
0,91537407;5,75457000
0,91553791;5,66484600
0,91570175;5,75457000
0,91586559;5,75457000
0,91602943;5,75457000
0,91619327;5,75457000
0,91635711;5,75457000
0,91652095;5,66484600
0,91668479;5,75457000
0,91684863;5,75457000
0,91701247;5,75457000
0,91717631;5,75457000
0,91734015;5,75457000
0,91750399;5,75457000
0,91766783;5,75457000
0,91783167;5,66484600
0,91799551;5,75457000
0,91815935;5,75457000
0,91832319;5,75457000
0,91848703;5,75457000
0,91865087;5,75457000
0,91881471;5,75457000
0,91897855;5,75457000
0,91914239;5,75457000
0,91930623;5,75457000
0,91947007;5,75457000
0,91963391;5,75457000
0,91979775;5,75457000
0,91996159;5,75457000
0,92012543;5,75457000
0,92028927;5,75457000
0,92045311;5,75457000
0,92061695;5,66484600
0,92078079;5,75457000
0,92094463;5,75457000
0,92110847;5,75457000
0,92127231;5,75457000
0,92143615;5,75457000
0,92159999;5,66484600
0,92176383;5,75457000
0,92192767;5,75457000
0,92209151;5,66484600
0,92225535;5,75457000
0,92241919;5,75457000
0,92258303;5,66484600
0,92274687;5,75457000
0,92291071;5,75457000
0,92307455;5,66484600
0,92323839;5,75457000
0,92340223;5,75457000
0,92356607;5,75457000
0,92372991;5,66484600
0,92389375;5,66484600
0,92405759;5,66484600
0,92422143;5,57512100
0,92438527;5,48539700
0,92454911;5,30564300
0,92471295;4,94644000
0,92487679;4,67696100
0,92504063;4,31775900
0,92520447;4,04858500
0,92536831;3,68938300
0,92553215;3,41990400
0,92569599;3,06070100
0,92585983;2,70149900
0,92602367;2,34229600
0,92618751;1,98309300
0,92635135;1,71361400
0,92651519;1,26468700
0,92667903;0,99520860
0,92684287;0,63600580
0,92700671;0,45655690
0,92717055;0,27680290
0,92733439;0,18707850
0,92749823;0,00762963
0,92766207;0,00762963
0,92782591;0,00762963
0,92798975;0,00762963
0,92815359;0,00762963
0,92831743;0,00762963
0,92848127;-0,08209479
0,92864511;-0,08209479
0,92880895;0,00762963
0,92897279;0,00762963
0,92913663;0,00762963
0,92930047;0,00762963
0,92946431;0,00762963
0,92962815;-0,08209479
0,92979199;0,00762963
0,92995583;0,00762963
0,93011967;0,00762963
0,93028351;0,00762963
0,93044735;0,00762963
0,93061119;0,00762963
0,93077503;0,00762963
0,93093887;0,00762963
0,93110271;0,00762963
0,93126655;0,00762963
0,93143039;0,00762963
0,93159423;-0,08209479
0,93175807;-0,08209479
0,93192191;0,00762963
0,93208575;0,00762963
0,93224959;0,00762963
0,93241343;0,00762963
0,93257727;0,00762963
0,93274111;0,00762963
0,93290495;0,00762963
0,93306879;0,00762963
0,93323263;0,09735405
0,93339647;0,00762963
0,93356031;0,00762963
0,93372415;0,09735405
0,93388799;0,00762963
0,93405183;0,00762963
0,93421567;0,00762963
0,93437951;0,00762963
0,93454335;0,00762963
0,93470719;0,00762963
0,93487103;0,00762963
0,93503487;0,00762963
0,93519871;0,00762963
0,93536255;0,00762963
0,93552639;0,00762963
0,93569023;0,00762963
0,93585407;0,00762963
0,93601791;0,00762963
0,93618175;0,00762963
0,93634559;0,00762963
0,93650943;0,00762963
0,93667327;0,00762963
0,93683711;0,00762963
0,93700095;0,00762963
0,93716479;0,00762963
0,93732863;0,00762963
0,93749247;-0,08209479
0,93765631;0,00762963
0,93782015;0,00762963
0,93798399;-0,08209479
0,93814783;-0,08209479
0,93831167;-0,08209479
0,93847551;0,00762963
0,93863935;-0,08209479
0,93880319;-0,08209479
0,93896703;-0,08209479
0,93913087;-0,08209479
0,93929471;-0,08209479
0,93945855;-0,08209479
0,93962239;-0,08209479
0,93978623;-0,08209479
0,93995007;-0,08209479
0,94011391;-0,08209479
0,94027775;-0,08209479
0,94044159;-0,08209479
0,94060543;-0,08209479
0,94076927;-0,08209479
0,94093311;-0,08209479
0,94109695;-0,08209479
0,94126079;-0,08209479
0,94142463;-0,08209479
0,94158847;-0,08209479
0,94175231;-0,17181920
0,94191615;-0,08209479
0,94207999;-0,17181920
0,94224383;-0,08209479
0,94240767;-0,08209479
0,94257151;-0,08209479
0,94273535;-0,08209479
0,94289919;-0,08209479
0,94306303;-0,08209479
0,94322687;-0,17181920
0,94339071;-0,08209479
0,94355455;-0,08209479
0,94371839;0,00762963
0,94388223;0,00762963
0,94404607;0,00762963
0,94420991;0,00762963
0,94437375;0,00762963
0,94453759;0,00762963
0,94470143;0,00762963
0,94486527;0,27680290
0,94502911;0,45655690
0,94519295;0,90548420
0,94535679;1,26468700
0,94552063;1,71361400
0,94568447;2,16254200
0,94584831;2,70149900
0,94601215;3,06070100
0,94617599;3,50962900
0,94633983;3,95855600
0,94650367;4,49751300
0,94666751;4,85671600
0,94683135;5,30564300
0,94699519;5,48539700
0,94715903;5,57512100
0,94732287;5,66484600
0,94748671;5,66484600
0,94765055;5,75457000
0,94781439;5,75457000
0,94797823;5,66484600
0,94814207;5,75457000
0,94830591;5,75457000
0,94846975;5,75457000
0,94863359;5,75457000
0,94879743;5,75457000
0,94896127;5,75457000
0,94912511;5,75457000
0,94928895;5,75457000
0,94945279;5,75457000
0,94961663;5,75457000
0,94978047;5,75457000
0,94994431;5,75457000
0,95010815;5,75457000
0,95027199;5,75457000
0,95043583;5,75457000
0,95059967;5,75457000
0,95076351;5,75457000
0,95092735;5,75457000
0,95109119;5,75457000
0,95125503;5,75457000
0,95141887;5,75457000
0,95158271;5,75457000
0,95174655;5,75457000
0,95191039;5,75457000
0,95207423;5,75457000
0,95223807;5,75457000
0,95240191;5,75457000
0,95256575;5,75457000
0,95272959;5,75457000
0,95289343;5,75457000
0,95305727;5,75457000
0,95322111;5,75457000
0,95338495;5,75457000
0,95354879;5,66484600
0,95371263;5,75457000
0,95387647;5,66484600
0,95404031;5,75457000
0,95420415;5,75457000
0,95436799;5,75457000
0,95453183;5,75457000
0,95469567;5,66484600
0,95485951;5,75457000
0,95502335;5,75457000
0,95518719;5,75457000
0,95535103;5,75457000
0,95551487;5,75457000
0,95567871;5,75457000
0,95584255;5,75457000
0,95600639;5,75457000
0,95617023;5,75457000
0,95633407;5,75457000
0,95649791;5,75457000
0,95666175;5,75457000
0,95682559;5,75457000
0,95698943;5,75457000
0,95715327;5,75457000
0,95731711;5,66484600
0,95748095;5,75457000
0,95764479;5,75457000
0,95780863;5,75457000
0,95797247;5,75457000
0,95813631;5,75457000
0,95830015;5,66484600
0,95846399;5,57512100
0,95862783;5,48539700
0,95879167;5,30564300
0,95895551;4,94644000
0,95911935;4,67696100
0,95928319;4,31775900
0,95944703;4,04858500
0,95961087;3,77910700
0,95977471;3,41990400
0,95993855;3,06070100
0,96010239;2,70149900
0,96026623;2,34229600
0,96043007;2,07281700
0,96059391;1,71361400
0,96075775;1,26468700
0,96092159;0,99520860
0,96108543;0,63600580
0,96124927;0,36652730
0,96141311;0,18707850
0,96157695;0,18707850
0,96174079;0,09735405
0,96190463;0,00762963
0,96206847;0,00762963
0,96223231;0,00762963
0,96239615;0,00762963
0,96255999;0,00762963
0,96272383;0,00762963
0,96288767;0,00762963
0,96305151;0,00762963
0,96321535;0,00762963
0,96337919;0,00762963
0,96354303;0,00762963
0,96370687;0,00762963
0,96387071;0,00762963
0,96403455;0,00762963
0,96419839;0,00762963
0,96436223;0,00762963
0,96452607;0,00762963
0,96468991;0,00762963
0,96485375;0,00762963
0,96501759;0,00762963
0,96518143;0,00762963
0,96534527;0,00762963
0,96550911;0,00762963
0,96567295;0,00762963
0,96583679;0,00762963
0,96600063;0,00762963
0,96616447;0,00762963
0,96632831;0,00762963
0,96649215;0,00762963
0,96665599;0,00762963
0,96681983;0,00762963
0,96698367;0,00762963
0,96714751;0,00762963
0,96731135;0,00762963
0,96747519;0,00762963
0,96763903;0,00762963
0,96780287;0,00762963
0,96796671;0,00762963
0,96813055;0,00762963
0,96829439;0,00762963
0,96845823;0,00762963
0,96862207;0,00762963
0,96878591;0,00762963
0,96894975;0,00762963
0,96911359;0,09735405
0,96927743;0,00762963
0,96944127;0,09735405
0,96960511;0,09735405
0,96976895;0,00762963
0,96993279;0,00762963
0,97009663;0,00762963
0,97026047;0,00762963
0,97042431;0,00762963
0,97058815;0,00762963
0,97075199;0,00762963
0,97091583;0,00762963
0,97107967;0,00762963
0,97124351;0,00762963
0,97140735;0,00762963
0,97157119;0,00762963
0,97173503;0,00762963
0,97189887;0,00762963
0,97206271;0,00762963
0,97222655;0,00762963
0,97239039;0,00762963
0,97255423;0,00762963
0,97271807;0,00762963
0,97288191;0,00762963
0,97304575;-0,08209479
0,97320959;0,00762963
0,97337343;-0,08209479
0,97353727;-0,08209479
0,97370111;0,00762963
0,97386495;-0,08209479
0,97402879;-0,08209479
0,97419263;0,00762963
0,97435647;-0,08209479
0,97452031;-0,08209479
0,97468415;-0,08209479
0,97484799;-0,08209479
0,97501183;-0,08209479
0,97517567;-0,08209479
0,97533951;-0,08209479
0,97550335;-0,08209479
0,97566719;-0,08209479
0,97583103;-0,08209479
0,97599487;-0,08209479
0,97615871;-0,08209479
0,97632255;-0,08209479
0,97648639;-0,08209479
0,97665023;-0,08209479
0,97681407;-0,08209479
0,97697791;-0,08209479
0,97714175;-0,08209479
0,97730559;-0,08209479
0,97746943;-0,08209479
0,97763327;-0,17181920
0,97779711;-0,08209479
0,97796095;-0,08209479
0,97812479;-0,08209479
0,97828863;0,00762963
0,97845247;-0,08209479
0,97861631;0,00762963
0,97878015;0,00762963
0,97894399;0,00762963
0,97910783;0,00762963
0,97927167;0,00762963
0,97943551;0,00762963
0,97959935;0,09735405
0,97976319;0,36652730
0,97992703;0,72573020
0,98009087;1,08493300
0,98025471;1,53416600
0,98041855;1,98309300
0,98058239;2,43202000
0,98074623;2,88094700
0,98091007;3,41990400
0,98107391;3,77910700
0,98123775;4,22803400
0,98140159;4,67696100
0,98156543;5,12619400
0,98172927;5,39536700
0,98189311;5,57512100
0,98205695;5,66484600
0,98222079;5,66484600
0,98238463;5,66484600
0,98254847;5,66484600
0,98271231;5,66484600
0,98287615;5,75457000
0,98303999;5,75457000
0,98320383;5,75457000
0,98336767;5,75457000
0,98353151;5,75457000
0,98369535;5,75457000
0,98385919;5,75457000
0,98402303;5,66484600
0,98418687;5,66484600
0,98435071;5,66484600
0,98451455;5,75457000
0,98467839;5,75457000
0,98484223;5,75457000
0,98500607;5,75457000
0,98516991;5,75457000
0,98533375;5,75457000
0,98549759;5,75457000
0,98566143;5,75457000
0,98582527;5,75457000
0,98598911;5,66484600
0,98615295;5,75457000
0,98631679;5,75457000
0,98648063;5,75457000
0,98664447;5,66484600
0,98680831;5,75457000
0,98697215;5,75457000
0,98713599;5,75457000
0,98729983;5,75457000
0,98746367;5,75457000
0,98762751;5,75457000
0,98779135;5,75457000
0,98795519;5,75457000
0,98811903;5,75457000
0,98828287;5,75457000
0,98844671;5,75457000
0,98861055;5,75457000
0,98877439;5,75457000
0,98893823;5,75457000
0,98910207;5,75457000
0,98926591;5,75457000
0,98942975;5,75457000
0,98959359;5,66484600
0,98975743;5,66484600
0,98992127;5,75457000
0,99008511;5,75457000
0,99024895;5,75457000
0,99041279;5,75457000
0,99057663;5,75457000
0,99074047;5,66484600
0,99090431;5,75457000
0,99106815;5,75457000
0,99123199;5,75457000
0,99139583;5,66484600
0,99155967;5,75457000
0,99172351;5,75457000
0,99188735;5,75457000
0,99205119;5,75457000
0,99221503;5,75457000
0,99237887;5,66484600
0,99254271;5,66484600
0,99270655;5,75457000
0,99287039;5,75457000
0,99303423;5,66484600
0,99319807;5,66484600
0,99336191;5,57512100
0,99352575;5,30564300
0,99368959;5,03616400
0,99385343;4,76699100
0,99401727;4,49751300
0,99418111;4,13831000
0,99434495;3,86883100
0,99450879;3,50962900
0,99467263;3,15042600
0,99483647;2,79122300
0,99500031;2,52174400
0,99516415;2,16254200
0,99532799;1,71361400
0,99549183;1,35441100
0,99565567;0,99520860
0,99581951;0,63600580
0,99598335;0,36652730
0,99614719;0,27680290
0,99631103;0,18707850
0,99647487;0,09735405
0,99663871;0,00762963
0,99680255;0,00762963
0,99696639;0,00762963
0,99713023;0,00762963
0,99729407;0,00762963
0,99745791;0,00762963
0,99762175;0,00762963
0,99778559;0,00762963
0,99794943;0,00762963
0,99811327;0,00762963
0,99827711;0,00762963
0,99844095;-0,08209479
0,99860479;0,00762963
0,99876863;0,00762963
0,99893247;0,00762963
0,99909631;0,00762963
0,99926015;0,00762963
0,99942399;0,00762963
0,99958783;0,00762963
0,99975167;0,00762963
0,99991551;0,00762963
1,00007935;0,00762963
1,00024319;0,00762963
1,00040703;0,00762963
1,00057087;0,00762963
