Temps;Canal A;Canal B
(s);(V);(V)

0,00000000;0,18707850;-0,00061037
0,00032768;0,18707850;-0,00061037
0,00065536;0,18707850;-0,00061037
0,00098304;0,09735405;-0,00061037
0,00131072;0,09735405;-0,00061037
0,00163840;0,18707850;-0,00061037
0,00196608;0,18707850;-0,00061037
0,00229376;0,18707850;-0,00061037
0,00262144;0,09735405;-0,00061037
0,00294912;0,18707850;-0,00061037
0,00327680;0,18707850;-0,00061037
0,00360448;0,09735405;-0,00061037
0,00393216;0,09735405;-0,00061037
0,00425984;0,09735405;-0,00061037
0,00458752;0,18707850;-0,00061037
0,00491520;0,09735405;-0,00061037
0,00524288;0,09735405;-0,00061037
0,00557056;0,18707850;-0,00061037
0,00589824;0,09735405;-0,00061037
0,00622592;0,18707850;-0,00061037
0,00655360;0,18707850;-0,00061037
0,00688128;0,09735405;-0,00061037
0,00720896;0,09735405;-0,00061037
0,00753664;0,18707850;-0,00061037
0,00786432;0,09735405;-0,00061037
0,00819200;0,09735405;-0,00061037
0,00851968;0,09735405;-0,00061037
0,00884736;0,09735405;-0,00061037
0,00917504;0,18707850;-0,00061037
0,00950272;0,18707850;-0,00061037
0,00983040;0,09735405;-0,00061037
0,01015808;0,09735405;-0,00061037
0,01048576;0,09735405;-0,00061037
0,01081344;0,09735405;-0,00061037
0,01114112;0,09735405;-0,00061037
0,01146880;0,09735405;-0,00061037
0,01179648;0,18707850;-0,00061037
0,01212416;0,09735405;-0,00061037
0,01245184;0,09735405;-0,00061037
0,01277952;0,09735405;-0,00061037
0,01310720;0,09735405;-0,00061037
0,01343488;0,09735405;-0,00061037
0,01376256;0,09735405;-0,00061037
0,01409024;0,09735405;-0,00061037
0,01441792;0,18707850;2,00384500
0,01474560;0,09735405;2,00384500
0,01507328;0,18707850;2,00384500
0,01540096;0,09735405;2,00384500
0,01572864;0,18707850;2,00384500
0,01605632;0,18707850;2,00384500
0,01638400;0,18707850;2,00384500
0,01671168;0,18707850;2,00384500
0,01703936;0,18707850;2,00384500
0,01736704;0,18707850;2,00384500
0,01769472;0,18707850;2,00384500
0,01802240;0,18707850;2,00384500
0,01835008;0,18707850;2,00384500
0,01867776;0,18707850;2,00384500
0,01900544;0,18707850;2,00384500
0,01933312;0,18707850;2,00384500
0,01966080;0,27680290;2,00384500
0,01998848;0,18707850;2,00384500
0,02031616;0,27680290;2,00384500
0,02064384;0,27680290;2,00384500
0,02097152;0,27680290;2,00384500
0,02129920;0,27680290;2,00384500
0,02162688;0,27680290;2,00384500
0,02195456;0,27680290;2,00384500
0,02228224;0,27680290;2,00384500
0,02260992;0,27680290;2,00384500
0,02293760;0,27680290;2,00384500
0,02326528;0,27680290;2,00384500
0,02359296;0,27680290;2,00384500
0,02392064;0,27680290;2,00384500
0,02424832;0,27680290;2,00384500
0,02457600;0,27680290;2,00384500
0,02490368;0,27680290;2,00384500
0,02523136;0,27680290;2,00384500
0,02555904;0,27680290;2,00384500
0,02588672;0,27680290;2,00384500
0,02621440;0,27680290;2,00384500
0,02654208;0,27680290;2,00384500
0,02686976;0,27680290;2,00384500
0,02719744;0,36652730;2,00384500
0,02752512;0,36652730;2,00384500
0,02785280;0,36652730;2,00384500
0,02818048;0,36652730;2,00384500
0,02850816;0,36652730;2,00384500
0,02883584;0,36652730;2,00384500
0,02916352;0,36652730;2,00384500
0,02949120;0,36652730;2,00384500
0,02981888;0,36652730;2,00384500
0,03014656;0,36652730;2,00384500
0,03047424;0,36652730;2,00384500
0,03080192;0,36652730;2,00384500
0,03112960;0,36652730;2,00384500
0,03145728;0,45655690;2,00384500
0,03178496;0,36652730;2,00384500
0,03211264;0,45655690;2,00384500
0,03244032;0,45655690;2,00384500
0,03276800;0,45655690;2,00384500
0,03309568;0,45655690;2,00384500
0,03342336;0,45655690;2,00384500
0,03375104;0,45655690;2,00384500
0,03407872;0,45655690;2,00384500
0,03440640;0,54628130;2,00384500
0,03473408;0,45655690;2,00384500
0,03506176;0,45655690;2,00384500
0,03538944;0,45655690;2,00384500
0,03571712;0,45655690;2,00384500
0,03604480;0,54628130;2,00384500
0,03637248;0,45655690;2,00384500
0,03670016;0,45655690;2,00384500
0,03702784;0,45655690;2,00384500
0,03735552;0,54628130;2,00384500
0,03768320;0,54628130;2,00384500
0,03801088;0,54628130;2,00384500
0,03833856;0,54628130;2,00384500
0,03866624;0,54628130;2,00384500
0,03899392;0,54628130;2,00384500
0,03932160;0,54628130;2,00384500
0,03964928;0,54628130;2,00384500
0,03997696;0,54628130;2,00384500
0,04030464;0,54628130;2,00384500
0,04063232;0,54628130;2,00384500
0,04096000;0,54628130;2,00384500
0,04128768;0,54628130;2,00384500
0,04161536;0,54628130;2,00384500
0,04194304;0,54628130;2,00384500
0,04227072;0,54628130;2,00384500
0,04259840;0,54628130;2,00384500
0,04292608;0,54628130;2,00384500
0,04325376;0,63600580;2,00384500
0,04358144;0,63600580;2,00384500
0,04390912;0,63600580;2,00384500
0,04423680;0,54628130;2,00384500
0,04456448;0,63600580;2,00384500
0,04489216;0,63600580;2,00384500
0,04521984;0,63600580;2,00384500
0,04554752;0,63600580;2,00384500
0,04587520;0,63600580;2,00384500
0,04620288;0,63600580;2,00384500
0,04653056;0,63600580;2,00384500
0,04685824;0,63600580;2,00384500
0,04718592;0,63600580;2,00384500
0,04751360;0,63600580;2,00384500
0,04784128;0,63600580;2,00384500
0,04816896;0,63600580;2,00384500
0,04849664;0,63600580;2,00384500
0,04882432;0,63600580;2,00384500
0,04915200;0,63600580;2,00384500
0,04947968;0,63600580;2,00384500
0,04980736;0,63600580;2,00384500
0,05013504;0,63600580;2,00384500
0,05046272;0,63600580;2,00384500
0,05079040;0,63600580;2,00384500
0,05111808;0,63600580;2,00384500
0,05144576;0,72573020;2,00384500
0,05177344;0,72573020;2,00384500
0,05210112;0,72573020;2,00384500
0,05242880;0,72573020;2,00384500
0,05275648;0,72573020;2,00384500
0,05308416;0,72573020;2,00384500
0,05341184;0,72573020;2,00384500
0,05373952;0,72573020;2,00384500
0,05406720;0,72573020;2,00384500
0,05439488;0,72573020;2,00384500
0,05472256;0,72573020;2,00384500
0,05505024;0,72573020;2,00384500
0,05537792;0,72573020;2,00384500
0,05570560;0,72573020;2,00384500
0,05603328;0,72573020;2,00384500
0,05636096;0,72573020;2,00384500
0,05668864;0,72573020;2,00384500
0,05701632;0,72573020;2,00384500
0,05734400;0,72573020;2,00384500
0,05767168;0,72573020;2,00384500
0,05799936;0,72573020;2,00384500
0,05832704;0,81575980;2,00384500
0,05865472;0,81575980;2,00384500
0,05898240;0,81575980;2,00384500
0,05931008;0,72573020;2,00384500
0,05963776;0,81575980;2,00384500
0,05996544;0,81575980;2,00384500
0,06029312;0,72573020;2,00384500
0,06062080;0,72573020;2,00384500
0,06094848;0,81575980;2,00384500
0,06127616;0,81575980;2,00384500
0,06160384;0,81575980;2,00384500
0,06193152;0,81575980;2,00384500
0,06225920;0,81575980;2,00384500
0,06258688;0,81575980;2,00384500
0,06291456;0,81575980;2,00384500
0,06324224;0,81575980;2,00384500
0,06356992;0,81575980;2,00384500
0,06389760;0,81575980;2,00384500
0,06422528;0,81575980;2,00384500
0,06455296;0,81575980;2,00384500
0,06488064;0,81575980;2,00384500
0,06520832;0,81575980;2,00384500
0,06553600;0,81575980;2,00384500
0,06586368;0,81575980;2,00384500
0,06619136;0,81575980;2,00384500
0,06651904;0,81575980;2,00384500
0,06684672;0,81575980;2,00384500
0,06717440;0,90548420;2,00384500
0,06750208;0,90548420;2,00384500
0,06782976;0,81575980;2,00384500
0,06815744;0,90548420;2,00384500
0,06848512;0,90548420;2,00384500
0,06881280;0,90548420;2,00384500
0,06914048;0,90548420;2,00384500
0,06946816;0,90548420;2,00384500
0,06979584;0,90548420;2,00384500
0,07012352;0,90548420;2,00384500
0,07045120;0,90548420;2,00384500
0,07077888;0,90548420;2,00384500
0,07110656;0,90548420;2,00384500
0,07143424;0,90548420;2,00384500
0,07176192;0,90548420;2,00384500
0,07208960;0,90548420;2,00384500
0,07241728;0,90548420;2,00384500
0,07274496;0,90548420;2,00384500
0,07307264;0,90548420;2,00384500
0,07340032;0,90548420;2,00384500
0,07372800;0,99520860;2,00384500
0,07405568;0,90548420;2,00384500
0,07438336;0,90548420;2,00384500
0,07471104;0,90548420;2,00384500
0,07503872;0,99520860;2,00384500
0,07536640;0,90548420;2,00384500
0,07569408;0,90548420;2,00384500
0,07602176;0,90548420;2,00384500
0,07634944;0,99520860;2,00384500
0,07667712;0,90548420;2,00384500
0,07700480;0,90548420;2,00384500
0,07733248;0,90548420;2,00384500
0,07766016;0,99520860;2,00384500
0,07798784;0,99520860;2,00384500
0,07831552;0,99520860;2,00384500
0,07864320;0,99520860;2,00384500
0,07897088;0,90548420;2,00384500
0,07929856;0,99520860;2,00384500
0,07962624;0,99520860;2,00384500
0,07995392;0,99520860;2,00384500
0,08028160;0,99520860;2,00384500
0,08060928;0,99520860;2,00384500
0,08093696;0,99520860;2,00384500
0,08126464;0,99520860;2,00384500
0,08159232;0,99520860;2,00384500
0,08192000;0,99520860;2,00384500
0,08224768;0,99520860;2,00384500
0,08257536;0,99520860;2,00384500
0,08290304;0,99520860;2,00384500
0,08323072;0,99520860;2,00384500
0,08355840;0,99520860;2,00384500
0,08388608;0,99520860;2,00384500
0,08421376;0,99520860;2,00384500
0,08454144;0,99520860;2,00384500
0,08486912;0,99520860;2,00384500
0,08519680;0,99520860;2,00384500
0,08552448;0,99520860;2,00384500
0,08585216;0,99520860;2,00384500
0,08617984;0,99520860;2,00384500
0,08650752;0,99520860;2,00384500
0,08683520;1,08493300;2,00384500
0,08716288;1,08493300;2,00384500
0,08749056;0,99520860;2,00384500
0,08781824;0,99520860;2,00384500
0,08814592;1,08493300;2,00384500
0,08847360;1,08493300;2,00384500
0,08880128;1,08493300;2,00384500
0,08912896;1,08493300;2,00384500
0,08945664;1,08493300;2,00384500
0,08978432;1,08493300;2,00384500
0,09011200;1,08493300;2,00384500
0,09043968;1,08493300;2,00384500
0,09076736;1,08493300;2,00384500
0,09109504;1,08493300;2,00384500
0,09142272;1,08493300;2,00384500
0,09175040;1,08493300;2,00384500
0,09207808;1,08493300;2,00384500
0,09240576;1,08493300;2,00384500
0,09273344;1,08493300;2,00384500
0,09306112;1,08493300;2,00384500
0,09338880;1,08493300;2,00384500
0,09371648;1,08493300;2,00384500
0,09404416;1,08493300;2,00384500
0,09437184;1,08493300;2,00384500
0,09469952;1,08493300;2,00384500
0,09502720;1,08493300;2,00384500
0,09535488;1,08493300;2,00384500
0,09568256;1,08493300;2,00384500
0,09601024;1,08493300;2,00384500
0,09633792;1,08493300;2,00384500
0,09666560;1,08493300;2,00384500
0,09699328;1,08493300;2,00384500
0,09732096;1,08493300;2,00384500
0,09764864;1,08493300;2,00384500
0,09797632;1,08493300;2,00384500
0,09830400;1,08493300;2,00384500
0,09863168;1,08493300;2,00384500
0,09895936;1,17496300;2,00384500
0,09928704;1,17496300;2,00384500
0,09961472;1,08493300;2,00384500
0,09994240;1,08493300;2,00384500
0,10027008;1,17496300;2,00384500
0,10059776;1,17496300;2,00384500
0,10092544;1,08493300;2,00384500
0,10125312;1,17496300;2,00384500
0,10158080;1,17496300;2,00384500
0,10190848;1,17496300;2,00384500
0,10223616;1,17496300;2,00384500
0,10256384;1,17496300;2,00384500
0,10289152;1,17496300;2,00384500
0,10321920;1,17496300;2,00384500
0,10354688;1,17496300;2,00384500
0,10387456;1,17496300;2,00384500
0,10420224;1,17496300;2,00384500
0,10452992;1,17496300;2,00384500
0,10485760;1,17496300;2,00384500
0,10518528;1,17496300;2,00384500
0,10551296;1,17496300;2,00384500
0,10584064;1,17496300;2,00384500
0,10616832;1,17496300;2,00384500
0,10649600;1,17496300;2,00384500
0,10682368;1,17496300;2,00384500
0,10715136;1,17496300;2,00384500
0,10747904;1,17496300;2,00384500
0,10780672;1,17496300;2,00384500
0,10813440;1,17496300;2,00384500
0,10846208;1,26468700;2,00384500
0,10878976;1,26468700;2,00384500
0,10911744;1,17496300;2,00384500
0,10944512;1,26468700;2,00384500
0,10977280;1,17496300;2,00384500
0,11010048;1,17496300;2,00384500
0,11042816;1,26468700;2,00384500
0,11075584;1,26468700;2,00384500
0,11108352;1,26468700;2,00384500
0,11141120;1,26468700;2,00384500
0,11173888;1,26468700;2,00384500
0,11206656;1,26468700;2,00384500
0,11239424;1,26468700;2,00384500
0,11272192;1,26468700;2,00384500
0,11304960;1,26468700;2,00384500
0,11337728;1,26468700;2,00384500
0,11370496;1,26468700;2,00384500
0,11403264;1,26468700;2,00384500
0,11436032;1,26468700;2,00384500
0,11468800;1,26468700;2,00384500
0,11501568;1,26468700;2,00384500
0,11534336;1,26468700;2,00384500
0,11567104;1,26468700;2,00384500
0,11599872;1,26468700;2,00384500
0,11632640;1,26468700;2,00384500
0,11665408;1,26468700;2,00384500
0,11698176;1,26468700;2,00384500
0,11730944;1,26468700;2,00384500
0,11763712;1,26468700;2,00384500
0,11796480;1,26468700;2,00384500
0,11829248;1,26468700;2,00384500
0,11862016;1,26468700;2,00384500
0,11894784;1,26468700;2,00384500
0,11927552;1,26468700;2,00384500
0,11960320;1,26468700;2,00384500
0,11993088;1,26468700;2,00384500
0,12025856;1,26468700;2,00384500
0,12058624;1,26468700;2,00384500
0,12091392;1,26468700;2,00384500
0,12124160;1,26468700;2,00384500
0,12156928;1,26468700;2,00384500
0,12189696;1,26468700;2,00384500
0,12222464;1,26468700;2,00384500
0,12255232;1,26468700;2,00384500
0,12288000;1,26468700;2,00384500
0,12320768;1,26468700;2,00384500
0,12353536;1,26468700;2,00384500
0,12386304;1,26468700;2,00384500
0,12419072;1,26468700;2,00384500
0,12451840;1,26468700;2,00384500
0,12484608;1,26468700;2,00384500
0,12517376;1,26468700;2,00384500
0,12550144;1,26468700;2,00384500
0,12582912;1,26468700;2,00384500
0,12615680;1,26468700;2,00384500
0,12648448;1,26468700;2,00384500
0,12681216;1,26468700;2,00384500
0,12713984;1,26468700;2,00384500
0,12746752;1,26468700;2,00384500
0,12779520;1,26468700;2,00384500
0,12812288;1,26468700;2,00384500
0,12845056;1,26468700;2,00384500
0,12877824;1,26468700;2,00384500
0,12910592;1,26468700;2,00384500
0,12943360;1,26468700;2,00384500
0,12976128;1,26468700;2,00384500
0,13008896;1,26468700;2,00384500
0,13041664;1,35441100;2,00384500
0,13074432;1,26468700;2,00384500
0,13107200;1,26468700;2,00384500
0,13139968;1,35441100;2,00384500
0,13172736;1,35441100;2,00384500
0,13205504;1,35441100;2,00384500
0,13238272;1,35441100;2,00384500
0,13271040;1,35441100;2,00384500
0,13303808;1,35441100;2,00384500
0,13336576;1,26468700;2,00384500
0,13369344;1,35441100;2,00384500
0,13402112;1,35441100;2,00384500
0,13434880;1,35441100;2,00384500
0,13467648;1,35441100;2,00384500
0,13500416;1,35441100;2,00384500
0,13533184;1,35441100;2,00384500
0,13565952;1,26468700;2,00384500
0,13598720;1,35441100;2,00384500
0,13631488;1,35441100;2,00384500
0,13664256;1,35441100;2,00384500
0,13697024;1,35441100;2,00384500
0,13729792;1,35441100;2,00384500
0,13762560;1,35441100;2,00384500
0,13795328;1,35441100;2,00384500
0,13828096;1,35441100;2,00384500
0,13860864;1,35441100;2,00384500
0,13893632;1,35441100;2,00384500
0,13926400;1,35441100;2,00384500
0,13959168;1,35441100;2,00384500
0,13991936;1,35441100;2,00384500
0,14024704;1,35441100;2,00384500
0,14057472;1,35441100;2,00384500
0,14090240;1,35441100;2,00384500
0,14123008;1,35441100;2,00384500
0,14155776;1,35441100;2,00384500
0,14188544;1,35441100;2,00384500
0,14221312;1,35441100;2,00384500
0,14254080;1,35441100;2,00384500
0,14286848;1,35441100;2,00384500
0,14319616;1,35441100;2,00384500
0,14352384;1,35441100;2,00384500
0,14385152;1,35441100;2,00384500
0,14417920;1,35441100;2,00384500
0,14450688;1,35441100;2,00384500
0,14483456;1,35441100;2,00384500
0,14516224;1,35441100;2,00384500
0,14548992;1,44413600;2,00384500
0,14581760;1,35441100;2,00384500
0,14614528;1,35441100;2,00384500
0,14647296;1,35441100;2,00384500
0,14680064;1,35441100;2,00384500
0,14712832;1,35441100;2,00384500
0,14745600;1,35441100;2,00384500
0,14778368;1,44413600;2,00384500
0,14811136;1,35441100;2,00384500
0,14843904;1,44413600;2,00384500
0,14876672;1,35441100;2,00384500
0,14909440;1,35441100;2,00384500
0,14942208;1,35441100;2,00384500
0,14974976;1,35441100;2,00384500
0,15007744;1,44413600;2,00384500
0,15040512;1,44413600;2,00384500
0,15073280;1,35441100;2,00384500
0,15106048;1,35441100;2,00384500
0,15138816;1,44413600;2,00384500
0,15171584;1,44413600;2,00384500
0,15204352;1,35441100;2,00384500
0,15237120;1,35441100;2,00384500
0,15269888;1,44413600;2,00384500
0,15302656;1,44413600;2,00384500
0,15335424;1,44413600;2,00384500
0,15368192;1,44413600;2,00384500
0,15400960;1,44413600;2,00384500
0,15433728;1,44413600;2,00384500
0,15466496;1,44413600;2,00384500
0,15499264;1,44413600;2,00384500
0,15532032;1,44413600;2,00384500
0,15564800;1,44413600;2,00384500
0,15597568;1,44413600;2,00384500
0,15630336;1,44413600;2,00384500
0,15663104;1,44413600;2,00384500
0,15695872;1,44413600;2,00384500
0,15728640;1,44413600;2,00384500
0,15761408;1,44413600;2,00384500
0,15794176;1,44413600;2,00384500
0,15826944;1,44413600;2,00384500
0,15859712;1,44413600;2,00384500
0,15892480;1,44413600;2,00384500
0,15925248;1,44413600;2,00384500
0,15958016;1,44413600;2,00384500
0,15990784;1,44413600;2,00384500
0,16023552;1,44413600;2,00384500
0,16056320;1,44413600;2,00384500
0,16089088;1,44413600;2,00384500
0,16121856;1,44413600;2,00384500
0,16154624;1,44413600;2,00384500
0,16187392;1,44413600;2,00384500
0,16220160;1,44413600;2,00384500
0,16252928;1,44413600;2,00384500
0,16285696;1,44413600;2,00384500
0,16318464;1,44413600;2,00384500
0,16351232;1,44413600;2,00384500
0,16384000;1,44413600;2,00384500
0,16416768;1,44413600;2,00384500
0,16449536;1,44413600;2,00384500
0,16482304;1,44413600;2,00384500
0,16515072;1,44413600;2,00384500
0,16547840;1,44413600;2,00384500
0,16580608;1,44413600;2,00384500
0,16613376;1,44413600;2,00384500
0,16646144;1,53416600;2,00384500
0,16678912;1,44413600;2,00384500
0,16711680;1,44413600;2,00384500
0,16744448;1,44413600;2,00384500
0,16777216;1,44413600;2,00384500
0,16809984;1,44413600;2,00384500
0,16842752;1,53416600;2,00384500
0,16875520;1,44413600;2,00384500
0,16908288;1,53416600;2,00384500
0,16941056;1,44413600;2,00384500
0,16973824;1,44413600;2,00384500
0,17006592;1,44413600;2,00384500
0,17039360;1,44413600;2,00384500
0,17072128;1,44413600;2,00384500
0,17104896;1,44413600;2,00384500
0,17137664;1,44413600;2,00384500
0,17170432;1,44413600;2,00384500
0,17203200;1,44413600;2,00384500
0,17235968;1,44413600;2,00384500
0,17268736;1,53416600;2,00384500
0,17301504;1,53416600;2,00384500
0,17334272;1,44413600;2,00384500
0,17367040;1,44413600;2,00384500
0,17399808;1,53416600;2,00384500
0,17432576;1,44413600;2,00384500
0,17465344;1,53416600;2,00384500
0,17498112;1,53416600;2,00384500
0,17530880;1,53416600;2,00384500
0,17563648;1,53416600;2,00384500
0,17596416;1,44413600;2,00384500
0,17629184;1,44413600;2,00384500
0,17661952;1,44413600;2,00384500
0,17694720;1,53416600;2,00384500
0,17727488;1,53416600;2,00384500
0,17760256;1,53416600;2,00384500
0,17793024;1,44413600;2,00384500
0,17825792;1,53416600;2,00384500
0,17858560;1,53416600;2,00384500
0,17891328;1,53416600;2,00384500
0,17924096;1,53416600;2,00384500
0,17956864;1,53416600;2,00384500
0,17989632;1,53416600;2,00384500
0,18022400;1,53416600;2,00384500
0,18055168;1,53416600;2,00384500
0,18087936;1,53416600;2,00384500
0,18120704;1,53416600;2,00384500
0,18153472;1,53416600;2,00384500
0,18186240;1,53416600;2,00384500
0,18219008;1,62389000;2,00384500
0,18251776;1,53416600;2,00384500
0,18284544;1,53416600;2,00384500
0,18317312;1,53416600;2,00384500
0,18350080;1,53416600;2,00384500
0,18382848;1,53416600;2,00384500
0,18415616;1,53416600;2,00384500
0,18448384;1,53416600;2,00384500
0,18481152;1,53416600;2,00384500
0,18513920;1,53416600;2,00384500
0,18546688;1,44413600;2,00384500
0,18579456;1,53416600;2,00384500
0,18612224;1,53416600;2,00384500
0,18644992;1,53416600;2,00384500
0,18677760;1,53416600;2,00384500
0,18710528;1,53416600;2,00384500
0,18743296;1,62389000;2,00384500
0,18776064;1,53416600;2,00384500
0,18808832;1,53416600;2,00384500
0,18841600;1,53416600;2,00384500
0,18874368;1,62389000;2,00384500
0,18907136;1,53416600;2,00384500
0,18939904;1,53416600;2,00384500
0,18972672;1,53416600;2,00384500
0,19005440;1,62389000;2,00384500
0,19038208;1,62389000;2,00384500
0,19070976;1,53416600;2,00384500
0,19103744;1,53416600;2,00384500
0,19136512;1,53416600;2,00384500
0,19169280;1,62389000;2,00384500
0,19202048;1,53416600;2,00384500
0,19234816;1,53416600;2,00384500
0,19267584;1,53416600;2,00384500
0,19300352;1,53416600;2,00384500
0,19333120;1,53416600;2,00384500
0,19365888;1,62389000;2,00384500
0,19398656;1,53416600;2,00384500
0,19431424;1,62389000;2,00384500
0,19464192;1,53416600;2,00384500
0,19496960;1,53416600;2,00384500
0,19529728;1,53416600;2,00384500
0,19562496;1,62389000;2,00384500
0,19595264;1,53416600;2,00384500
0,19628032;1,62389000;2,00384500
0,19660800;1,62389000;2,00384500
0,19693568;1,62389000;2,00384500
0,19726336;1,53416600;2,00384500
0,19759104;1,53416600;2,00384500
0,19791872;1,53416600;2,00384500
0,19824640;1,62389000;2,00384500
0,19857408;1,53416600;2,00384500
0,19890176;1,62389000;2,00384500
0,19922944;1,62389000;2,00384500
0,19955712;1,53416600;2,00384500
0,19988480;1,62389000;2,00384500
0,20021248;1,62389000;2,00384500
0,20054016;1,53416600;2,00384500
0,20086784;1,53416600;2,00384500
0,20119552;1,53416600;2,00384500
0,20152320;1,62389000;2,00384500
0,20185088;1,62389000;2,00384500
0,20217856;1,62389000;2,00384500
0,20250624;1,53416600;2,00384500
0,20283392;1,53416600;2,00384500
0,20316160;1,62389000;2,00384500
0,20348928;1,62389000;2,00384500
0,20381696;1,62389000;2,00384500
0,20414464;1,62389000;2,00384500
0,20447232;1,62389000;2,00384500
0,20480000;1,62389000;2,00384500
0,20512768;1,62389000;2,00384500
0,20545536;1,53416600;2,00384500
0,20578304;1,62389000;2,00384500
0,20611072;1,62389000;2,00384500
0,20643840;1,62389000;2,00384500
0,20676608;1,62389000;2,00384500
0,20709376;1,62389000;2,00384500
0,20742144;1,62389000;2,00384500
0,20774912;1,62389000;2,00384500
0,20807680;1,62389000;2,00384500
0,20840448;1,62389000;2,00384500
0,20873216;1,53416600;2,00384500
0,20905984;1,62389000;2,00384500
0,20938752;1,62389000;2,00384500
0,20971520;1,62389000;2,00384500
0,21004288;1,62389000;2,00384500
0,21037056;1,62389000;2,00384500
0,21069824;1,62389000;2,00384500
0,21102592;1,62389000;2,00384500
0,21135360;1,62389000;2,00384500
0,21168128;1,62389000;2,00384500
0,21200896;1,62389000;2,00384500
0,21233664;1,62389000;2,00384500
0,21266432;1,62389000;2,00384500
0,21299200;1,62389000;2,00384500
0,21331968;1,62389000;2,00384500
0,21364736;1,62389000;2,00384500
0,21397504;1,62389000;2,00384500
0,21430272;1,62389000;2,00384500
0,21463040;1,62389000;2,00384500
0,21495808;1,62389000;2,00384500
0,21528576;1,62389000;2,00384500
0,21561344;1,62389000;2,00384500
0,21594112;1,62389000;2,00384500
0,21626880;1,62389000;2,00384500
0,21659648;1,62389000;2,00384500
0,21692416;1,62389000;2,00384500
0,21725184;1,62389000;2,00384500
0,21757952;1,62389000;2,00384500
0,21790720;1,62389000;2,00384500
0,21823488;1,62389000;2,00384500
0,21856256;1,62389000;2,00384500
0,21889024;1,62389000;2,00384500
0,21921792;1,62389000;2,00384500
0,21954560;1,62389000;2,00384500
0,21987328;1,62389000;2,00384500
0,22020096;1,62389000;2,00384500
0,22052864;1,62389000;2,00384500
0,22085632;1,62389000;2,00384500
0,22118400;1,62389000;2,00384500
0,22151168;1,62389000;2,00384500
0,22183936;1,62389000;2,00384500
0,22216704;1,62389000;2,00384500
0,22249472;1,62389000;2,00384500
0,22282240;1,62389000;2,00384500
0,22315008;1,62389000;2,00384500
0,22347776;1,62389000;2,00384500
0,22380544;1,62389000;2,00384500
0,22413312;1,62389000;2,00384500
0,22446080;1,62389000;2,00384500
0,22478848;1,62389000;2,00384500
0,22511616;1,62389000;2,00384500
0,22544384;1,62389000;2,00384500
0,22577152;1,62389000;2,00384500
0,22609920;1,62389000;2,00384500
0,22642688;1,62389000;2,00384500
0,22675456;1,62389000;2,00384500
0,22708224;1,62389000;2,00384500
0,22740992;1,62389000;2,00384500
0,22773760;1,62389000;2,00384500
0,22806528;1,62389000;2,00384500
0,22839296;1,62389000;2,00384500
0,22872064;1,71361400;2,00384500
0,22904832;1,62389000;2,00384500
0,22937600;1,62389000;2,00384500
0,22970368;1,62389000;2,00384500
0,23003136;1,62389000;2,00384500
0,23035904;1,62389000;2,00384500
0,23068672;1,62389000;2,00384500
0,23101440;1,62389000;2,00384500
0,23134208;1,71361400;2,00384500
0,23166976;1,62389000;2,00384500
0,23199744;1,62389000;2,00384500
0,23232512;1,71361400;2,00384500
0,23265280;1,62389000;2,00384500
0,23298048;1,62389000;2,00384500
0,23330816;1,62389000;2,00384500
0,23363584;1,62389000;2,00384500
0,23396352;1,71361400;2,00384500
0,23429120;1,62389000;2,00384500
0,23461888;1,62389000;2,00384500
0,23494656;1,71361400;2,00384500
0,23527424;1,71361400;2,00384500
0,23560192;1,62389000;2,00384500
0,23592960;1,62389000;2,00384500
0,23625728;1,62389000;2,00384500
0,23658496;1,62389000;2,00384500
0,23691264;1,62389000;2,00384500
0,23724032;1,62389000;2,00384500
0,23756800;1,62389000;2,00384500
0,23789568;1,62389000;2,00384500
0,23822336;1,62389000;2,00384500
0,23855104;1,62389000;2,00384500
0,23887872;1,62389000;2,00384500
0,23920640;1,62389000;2,00384500
0,23953408;1,62389000;2,00384500
0,23986176;1,62389000;2,00384500
0,24018944;1,62389000;2,00384500
0,24051712;1,71361400;2,00384500
0,24084480;1,62389000;2,09479000
0,24117248;1,62389000;2,00384500
0,24150016;1,71361400;2,00384500
0,24182784;1,71361400;2,00384500
0,24215552;1,71361400;2,00384500
0,24248320;1,62389000;2,00384500
0,24281088;1,71361400;2,00384500
0,24313856;1,62389000;2,00384500
0,24346624;1,62389000;2,00384500
0,24379392;1,62389000;2,00384500
0,24412160;1,71361400;2,00384500
0,24444928;1,62389000;2,00384500
0,24477696;1,71361400;2,00384500
0,24510464;1,71361400;2,00384500
0,24543232;1,62389000;2,00384500
0,24576000;1,62389000;2,00384500
0,24608768;1,71361400;2,00384500
0,24641536;1,62389000;2,00384500
0,24674304;1,71361400;2,00384500
0,24707072;1,62389000;2,00384500
0,24739840;1,71361400;2,00384500
0,24772608;1,71361400;2,00384500
0,24805376;1,62389000;2,00384500
0,24838144;1,62389000;2,00384500
0,24870912;1,62389000;2,00384500
0,24903680;1,62389000;2,00384500
0,24936448;1,71361400;2,00384500
0,24969216;1,62389000;2,00384500
0,25001984;1,62389000;2,00384500
0,25034752;1,71361400;2,00384500
0,25067520;1,71361400;2,00384500
0,25100288;1,71361400;2,00384500
0,25133056;1,71361400;2,00384500
0,25165824;1,71361400;2,00384500
0,25198592;1,71361400;2,00384500
0,25231360;1,71361400;2,00384500
0,25264128;1,71361400;2,00384500
0,25296896;1,62389000;2,00384500
0,25329664;1,62389000;2,00384500
0,25362432;1,71361400;2,00384500
0,25395200;1,71361400;2,00384500
0,25427968;1,71361400;2,00384500
0,25460736;1,62389000;2,00384500
0,25493504;1,71361400;2,00384500
0,25526272;1,62389000;2,00384500
0,25559040;1,71361400;2,00384500
0,25591808;1,62389000;2,00384500
0,25624576;1,62389000;2,00384500
0,25657344;1,71361400;2,00384500
0,25690112;1,71361400;2,00384500
0,25722880;1,71361400;2,00384500
0,25755648;1,71361400;2,00384500
0,25788416;1,62389000;2,00384500
0,25821184;1,71361400;2,00384500
0,25853952;1,62389000;2,00384500
0,25886720;1,62389000;2,00384500
0,25919488;1,71361400;2,00384500
0,25952256;1,71361400;2,00384500
0,25985024;1,71361400;2,00384500
0,26017792;1,71361400;2,00384500
0,26050560;1,71361400;2,00384500
0,26083328;1,62389000;2,00384500
0,26116096;1,71361400;2,00384500
0,26148864;1,71361400;2,00384500
0,26181632;1,71361400;2,00384500
0,26214400;1,71361400;2,00384500
0,26247168;1,71361400;2,00384500
0,26279936;1,71361400;2,00384500
0,26312704;1,71361400;2,00384500
0,26345472;1,71361400;2,00384500
0,26378240;1,62389000;2,00384500
0,26411008;1,71361400;2,00384500
0,26443776;1,71361400;2,00384500
0,26476544;1,71361400;2,00384500
0,26509312;1,71361400;2,00384500
0,26542080;1,71361400;2,00384500
0,26574848;1,71361400;-0,00061037
0,26607616;1,62389000;-0,00061037
0,26640384;1,62389000;-0,00061037
0,26673152;1,71361400;-0,00061037
0,26705920;1,62389000;-0,00061037
0,26738688;1,62389000;-0,00061037
0,26771456;1,62389000;-0,00061037
0,26804224;1,62389000;-0,00061037
0,26836992;1,62389000;-0,00061037
0,26869760;1,62389000;-0,00061037
0,26902528;1,62389000;-0,00061037
0,26935296;1,62389000;-0,00061037
0,26968064;1,62389000;-0,00061037
0,27000832;1,62389000;-0,00061037
0,27033600;1,62389000;-0,00061037
0,27066368;1,62389000;0,09063997
0,27099136;1,62389000;-0,00061037
0,27131904;1,62389000;-0,00061037
0,27164672;1,62389000;-0,00061037
0,27197440;1,62389000;-0,00061037
0,27230208;1,53416600;-0,00061037
0,27262976;1,53416600;-0,00061037
0,27295744;1,53416600;-0,00061037
0,27328512;1,53416600;-0,00061037
0,27361280;1,53416600;-0,00061037
0,27394048;1,62389000;-0,00061037
0,27426816;1,53416600;-0,00061037
0,27459584;1,62389000;-0,00061037
0,27492352;1,53416600;-0,00061037
0,27525120;1,53416600;-0,00061037
0,27557888;1,53416600;-0,00061037
0,27590656;1,53416600;-0,00061037
0,27623424;1,53416600;-0,00061037
0,27656192;1,44413600;-0,00061037
0,27688960;1,44413600;-0,00061037
0,27721728;1,44413600;-0,00061037
0,27754496;1,44413600;0,09063997
0,27787264;1,44413600;-0,00061037
0,27820032;1,44413600;-0,00061037
0,27852800;1,44413600;-0,00061037
0,27885568;1,44413600;-0,00061037
0,27918336;1,44413600;-0,00061037
0,27951104;1,35441100;-0,00061037
0,27983872;1,44413600;-0,00061037
0,28016640;1,44413600;-0,00061037
0,28049408;1,44413600;-0,00061037
0,28082176;1,44413600;-0,00061037
0,28114944;1,44413600;-0,00061037
0,28147712;1,35441100;-0,00061037
0,28180480;1,44413600;-0,00061037
0,28213248;1,35441100;-0,00061037
0,28246016;1,44413600;-0,00061037
0,28278784;1,44413600;-0,00061037
0,28311552;1,35441100;-0,00061037
0,28344320;1,35441100;-0,00061037
0,28377088;1,35441100;-0,00061037
0,28409856;1,35441100;-0,00061037
0,28442624;1,35441100;0,09063997
0,28475392;1,35441100;-0,00061037
0,28508160;1,35441100;-0,00061037
0,28540928;1,35441100;-0,00061037
0,28573696;1,26468700;-0,00061037
0,28606464;1,35441100;-0,00061037
0,28639232;1,35441100;-0,00061037
0,28672000;1,26468700;-0,00061037
0,28704768;1,26468700;-0,00061037
0,28737536;1,26468700;-0,00061037
0,28770304;1,35441100;-0,00061037
0,28803072;1,35441100;-0,00061037
0,28835840;1,26468700;-0,00061037
0,28868608;1,26468700;-0,00061037
0,28901376;1,26468700;-0,00061037
0,28934144;1,26468700;-0,00061037
0,28966912;1,26468700;-0,00061037
0,28999680;1,26468700;-0,00061037
0,29032448;1,26468700;-0,00061037
0,29065216;1,26468700;-0,00061037
0,29097984;1,26468700;-0,00061037
0,29130752;1,26468700;-0,00061037
0,29163520;1,26468700;-0,00061037
0,29196288;1,26468700;-0,00061037
0,29229056;1,26468700;-0,00061037
0,29261824;1,26468700;-0,00061037
0,29294592;1,26468700;-0,00061037
0,29327360;1,26468700;-0,00061037
0,29360128;1,26468700;-0,00061037
0,29392896;1,26468700;-0,00061037
0,29425664;1,26468700;-0,00061037
0,29458432;1,26468700;-0,00061037
0,29491200;1,26468700;-0,00061037
0,29523968;1,26468700;-0,00061037
0,29556736;1,17496300;-0,00061037
0,29589504;1,17496300;-0,00061037
0,29622272;1,26468700;-0,00061037
0,29655040;1,17496300;-0,00061037
0,29687808;1,17496300;-0,00061037
0,29720576;1,17496300;-0,00061037
0,29753344;1,17496300;-0,00061037
0,29786112;1,17496300;-0,00061037
0,29818880;1,26468700;-0,00061037
0,29851648;1,17496300;-0,00061037
0,29884416;1,17496300;-0,00061037
0,29917184;1,17496300;-0,00061037
0,29949952;1,17496300;-0,00061037
0,29982720;1,17496300;-0,00061037
0,30015488;1,17496300;-0,00061037
0,30048256;1,17496300;-0,00061037
0,30081024;1,08493300;-0,00061037
0,30113792;1,17496300;-0,00061037
0,30146560;1,08493300;-0,00061037
0,30179328;1,17496300;-0,00061037
0,30212096;1,17496300;-0,00061037
0,30244864;1,08493300;-0,00061037
0,30277632;1,08493300;-0,00061037
0,30310400;1,08493300;-0,00061037
0,30343168;1,08493300;-0,00061037
0,30375936;1,08493300;-0,00061037
0,30408704;1,08493300;-0,00061037
0,30441472;1,08493300;-0,00061037
0,30474240;1,08493300;-0,00061037
0,30507008;1,08493300;-0,00061037
0,30539776;1,08493300;-0,00061037
0,30572544;1,08493300;-0,00061037
0,30605312;1,08493300;-0,00061037
0,30638080;1,08493300;-0,00061037
0,30670848;1,08493300;-0,00061037
0,30703616;0,99520860;-0,00061037
0,30736384;1,08493300;-0,00061037
0,30769152;1,08493300;-0,00061037
0,30801920;1,08493300;-0,00061037
0,30834688;0,99520860;-0,00061037
0,30867456;0,99520860;-0,00061037
0,30900224;1,08493300;-0,00061037
0,30932992;1,08493300;-0,00061037
0,30965760;1,08493300;-0,00061037
0,30998528;1,08493300;-0,00061037
0,31031296;1,08493300;-0,00061037
0,31064064;0,99520860;-0,00061037
0,31096832;0,99520860;-0,00061037
0,31129600;0,99520860;-0,00061037
0,31162368;0,99520860;-0,00061037
0,31195136;0,99520860;-0,00061037
0,31227904;0,99520860;-0,00061037
0,31260672;0,99520860;-0,00061037
0,31293440;0,99520860;-0,00061037
0,31326208;0,99520860;-0,00061037
0,31358976;0,99520860;-0,00061037
0,31391744;0,99520860;-0,00061037
0,31424512;0,99520860;-0,00061037
0,31457280;0,99520860;-0,00061037
0,31490048;0,99520860;-0,00061037
0,31522816;0,99520860;-0,00061037
0,31555584;0,99520860;-0,00061037
0,31588352;0,99520860;-0,00061037
0,31621120;0,99520860;-0,00061037
0,31653888;0,99520860;-0,00061037
0,31686656;0,99520860;-0,00061037
0,31719424;0,99520860;-0,00061037
0,31752192;0,99520860;-0,00061037
0,31784960;0,99520860;-0,00061037
0,31817728;0,99520860;-0,00061037
0,31850496;0,99520860;-0,00061037
0,31883264;0,90548420;-0,00061037
0,31916032;0,90548420;-0,00061037
0,31948800;0,90548420;-0,00061037
0,31981568;0,90548420;-0,00061037
0,32014336;0,90548420;-0,00061037
0,32047104;0,90548420;-0,00061037
0,32079872;0,90548420;-0,00061037
0,32112640;0,90548420;-0,00061037
0,32145408;0,90548420;-0,00061037
0,32178176;0,90548420;-0,00061037
0,32210944;0,90548420;-0,00061037
0,32243712;0,90548420;-0,00061037
0,32276480;0,90548420;-0,00061037
0,32309248;0,90548420;-0,00061037
0,32342016;0,90548420;-0,00061037
0,32374784;0,90548420;-0,00061037
0,32407552;0,90548420;-0,00061037
0,32440320;0,90548420;-0,00061037
0,32473088;0,90548420;-0,00061037
0,32505856;0,90548420;0,09063997
0,32538624;0,90548420;-0,00061037
0,32571392;0,90548420;-0,00061037
0,32604160;0,90548420;-0,00061037
0,32636928;0,90548420;-0,00061037
0,32669696;0,90548420;-0,00061037
0,32702464;0,81575980;-0,00061037
0,32735232;0,90548420;-0,00061037
0,32768000;0,90548420;-0,00061037
0,32800768;0,90548420;-0,00061037
0,32833536;0,81575980;-0,00061037
0,32866304;0,90548420;-0,00061037
0,32899072;0,81575980;-0,00061037
0,32931840;0,90548420;-0,00061037
0,32964608;0,90548420;-0,00061037
0,32997376;0,81575980;-0,00061037
0,33030144;0,81575980;-0,00061037
0,33062912;0,81575980;-0,00061037
0,33095680;0,81575980;-0,00061037
0,33128448;0,81575980;-0,00061037
0,33161216;0,81575980;-0,00061037
0,33193984;0,81575980;-0,00061037
0,33226752;0,81575980;-0,00061037
0,33259520;0,81575980;-0,00061037
0,33292288;0,81575980;-0,00061037
0,33325056;0,81575980;-0,00061037
0,33357824;0,81575980;-0,00061037
0,33390592;0,81575980;-0,00061037
0,33423360;0,81575980;-0,00061037
0,33456128;0,81575980;-0,00061037
0,33488896;0,81575980;-0,00061037
0,33521664;0,81575980;-0,00061037
0,33554432;0,72573020;-0,00061037
0,33587200;0,81575980;-0,00061037
0,33619968;0,81575980;-0,00061037
0,33652736;0,81575980;-0,00061037
0,33685504;0,81575980;-0,00061037
0,33718272;0,81575980;-0,00061037
0,33751040;0,81575980;-0,00061037
0,33783808;0,72573020;-0,00061037
0,33816576;0,72573020;-0,00061037
0,33849344;0,81575980;-0,00061037
0,33882112;0,81575980;-0,00061037
0,33914880;0,72573020;-0,00061037
0,33947648;0,72573020;-0,00061037
0,33980416;0,72573020;-0,00061037
0,34013184;0,72573020;-0,00061037
0,34045952;0,72573020;-0,00061037
0,34078720;0,72573020;-0,00061037
0,34111488;0,81575980;-0,00061037
0,34144256;0,72573020;-0,00061037
0,34177024;0,72573020;-0,00061037
0,34209792;0,72573020;-0,00061037
0,34242560;0,72573020;-0,00061037
0,34275328;0,72573020;-0,00061037
0,34308096;0,72573020;-0,00061037
0,34340864;0,72573020;-0,00061037
0,34373632;0,72573020;-0,00061037
0,34406400;0,72573020;-0,00061037
0,34439168;0,72573020;-0,00061037
0,34471936;0,72573020;-0,00061037
0,34504704;0,72573020;-0,00061037
0,34537472;0,63600580;-0,00061037
0,34570240;0,63600580;-0,00061037
0,34603008;0,72573020;-0,00061037
0,34635776;0,72573020;-0,00061037
0,34668544;0,72573020;-0,00061037
0,34701312;0,72573020;-0,00061037
0,34734080;0,72573020;-0,00061037
0,34766848;0,72573020;-0,00061037
0,34799616;0,72573020;-0,00061037
0,34832384;0,63600580;-0,00061037
0,34865152;0,63600580;-0,00061037
0,34897920;0,72573020;-0,00061037
0,34930688;0,63600580;-0,00061037
0,34963456;0,63600580;-0,00061037
0,34996224;0,63600580;-0,00061037
0,35028992;0,72573020;-0,00061037
0,35061760;0,63600580;-0,00061037
0,35094528;0,63600580;-0,00061037
0,35127296;0,63600580;-0,00061037
0,35160064;0,63600580;-0,00061037
0,35192832;0,63600580;-0,00061037
0,35225600;0,63600580;-0,00061037
0,35258368;0,63600580;-0,00061037
0,35291136;0,63600580;-0,00061037
0,35323904;0,63600580;-0,00061037
0,35356672;0,63600580;-0,00061037
0,35389440;0,63600580;-0,00061037
0,35422208;0,63600580;-0,00061037
0,35454976;0,63600580;-0,00061037
0,35487744;0,63600580;-0,00061037
0,35520512;0,63600580;-0,00061037
0,35553280;0,63600580;-0,00061037
0,35586048;0,63600580;-0,00061037
0,35618816;0,63600580;-0,00061037
0,35651584;0,63600580;-0,00061037
0,35684352;0,63600580;-0,00061037
0,35717120;0,63600580;-0,00061037
0,35749888;0,63600580;-0,00061037
0,35782656;0,63600580;-0,00061037
0,35815424;0,63600580;-0,00061037
0,35848192;0,63600580;-0,00061037
0,35880960;0,63600580;-0,00061037
0,35913728;0,63600580;-0,00061037
0,35946496;0,63600580;-0,00061037
0,35979264;0,63600580;-0,00061037
0,36012032;0,63600580;-0,00061037
0,36044800;0,63600580;-0,00061037
0,36077568;0,63600580;-0,00061037
0,36110336;0,63600580;-0,00061037
0,36143104;0,63600580;-0,00061037
0,36175872;0,54628130;-0,00061037
0,36208640;0,54628130;-0,00061037
0,36241408;0,54628130;-0,00061037
0,36274176;0,63600580;-0,00061037
0,36306944;0,63600580;-0,00061037
0,36339712;0,54628130;-0,00061037
0,36372480;0,63600580;-0,00061037
0,36405248;0,63600580;-0,00061037
0,36438016;0,54628130;-0,00061037
0,36470784;0,54628130;-0,00061037
0,36503552;0,54628130;-0,00061037
0,36536320;0,54628130;-0,00061037
0,36569088;0,54628130;-0,00061037
0,36601856;0,54628130;-0,00061037
0,36634624;0,54628130;-0,00061037
0,36667392;0,54628130;-0,00061037
0,36700160;0,54628130;-0,00061037
0,36732928;0,63600580;-0,00061037
0,36765696;0,54628130;-0,00061037
0,36798464;0,54628130;-0,00061037
0,36831232;0,54628130;-0,00061037
0,36864000;0,54628130;-0,00061037
0,36896768;0,54628130;-0,00061037
0,36929536;0,54628130;-0,00061037
0,36962304;0,54628130;-0,00061037
0,36995072;0,54628130;-0,00061037
0,37027840;0,54628130;-0,00061037
0,37060608;0,54628130;0,09063997
0,37093376;0,54628130;-0,00061037
0,37126144;0,54628130;-0,00061037
0,37158912;0,54628130;-0,00061037
0,37191680;0,54628130;-0,00061037
0,37224448;0,54628130;-0,00061037
0,37257216;0,54628130;-0,00061037
0,37289984;0,54628130;-0,00061037
0,37322752;0,54628130;-0,00061037
0,37355520;0,54628130;-0,00061037
0,37388288;0,54628130;-0,00061037
0,37421056;0,54628130;-0,00061037
0,37453824;0,54628130;-0,00061037
0,37486592;0,54628130;-0,00061037
0,37519360;0,54628130;-0,00061037
0,37552128;0,54628130;-0,00061037
0,37584896;0,54628130;-0,00061037
0,37617664;0,45655690;-0,00061037
0,37650432;0,54628130;-0,00061037
0,37683200;0,54628130;-0,00061037
0,37715968;0,54628130;-0,00061037
0,37748736;0,54628130;-0,00061037
0,37781504;0,54628130;-0,00061037
0,37814272;0,54628130;-0,00061037
0,37847040;0,45655690;-0,00061037
0,37879808;0,45655690;-0,00061037
0,37912576;0,45655690;-0,00061037
0,37945344;0,45655690;-0,00061037
0,37978112;0,54628130;-0,00061037
0,38010880;0,54628130;-0,00061037
0,38043648;0,54628130;-0,00061037
0,38076416;0,45655690;-0,00061037
0,38109184;0,45655690;-0,00061037
0,38141952;0,45655690;-0,00061037
0,38174720;0,54628130;-0,00061037
0,38207488;0,45655690;-0,00061037
0,38240256;0,45655690;-0,00061037
0,38273024;0,45655690;-0,00061037
0,38305792;0,45655690;-0,00061037
0,38338560;0,54628130;-0,00061037
0,38371328;0,54628130;-0,00061037
0,38404096;0,54628130;-0,00061037
0,38436864;0,45655690;-0,00061037
0,38469632;0,45655690;-0,00061037
0,38502400;0,45655690;-0,00061037
0,38535168;0,45655690;-0,00061037
0,38567936;0,45655690;-0,00061037
0,38600704;0,45655690;-0,00061037
0,38633472;0,54628130;-0,00061037
0,38666240;0,45655690;-0,00061037
0,38699008;0,45655690;-0,00061037
0,38731776;0,45655690;-0,00061037
0,38764544;0,45655690;-0,00061037
0,38797312;0,45655690;-0,00061037
0,38830080;0,45655690;-0,00061037
0,38862848;0,45655690;-0,00061037
0,38895616;0,45655690;-0,00061037
0,38928384;0,45655690;-0,00061037
0,38961152;0,45655690;-0,00061037
0,38993920;0,45655690;-0,00061037
0,39026688;0,45655690;-0,00061037
0,39059456;0,45655690;-0,00061037
0,39092224;0,45655690;-0,00061037
0,39124992;0,36652730;-0,00061037
0,39157760;0,45655690;-0,00061037
0,39190528;0,45655690;-0,00061037
0,39223296;0,36652730;-0,00061037
0,39256064;0,45655690;-0,00061037
0,39288832;0,45655690;-0,00061037
0,39321600;0,45655690;-0,00061037
0,39354368;0,45655690;-0,00061037
0,39387136;0,36652730;-0,00061037
0,39419904;0,45655690;-0,00061037
0,39452672;0,36652730;-0,00061037
0,39485440;0,45655690;-0,00061037
0,39518208;0,36652730;-0,00061037
0,39550976;0,45655690;-0,00061037
0,39583744;0,36652730;-0,00061037
0,39616512;0,36652730;0,09063997
0,39649280;0,36652730;-0,00061037
0,39682048;0,45655690;-0,00061037
0,39714816;0,36652730;-0,00061037
0,39747584;0,36652730;-0,00061037
0,39780352;0,45655690;-0,00061037
0,39813120;0,36652730;-0,00061037
0,39845888;0,36652730;-0,00061037
0,39878656;0,36652730;-0,00061037
0,39911424;0,45655690;-0,00061037
0,39944192;0,36652730;-0,00061037
0,39976960;0,36652730;-0,00061037
0,40009728;0,36652730;-0,00061037
0,40042496;0,36652730;-0,00061037
0,40075264;0,36652730;-0,00061037
0,40108032;0,36652730;-0,00061037
0,40140800;0,36652730;-0,00061037
0,40173568;0,36652730;-0,00061037
0,40206336;0,36652730;-0,00061037
0,40239104;0,36652730;-0,00061037
0,40271872;0,36652730;-0,00061037
0,40304640;0,36652730;-0,00061037
0,40337408;0,36652730;-0,00061037
0,40370176;0,36652730;-0,00061037
0,40402944;0,36652730;-0,00061037
0,40435712;0,36652730;0,09063997
0,40468480;0,36652730;-0,00061037
0,40501248;0,36652730;-0,00061037
0,40534016;0,36652730;-0,00061037
0,40566784;0,36652730;-0,00061037
0,40599552;0,36652730;-0,00061037
0,40632320;0,36652730;0,09063997
0,40665088;0,36652730;-0,00061037
0,40697856;0,36652730;-0,00061037
0,40730624;0,36652730;-0,00061037
0,40763392;0,36652730;-0,00061037
0,40796160;0,36652730;-0,00061037
0,40828928;0,36652730;-0,00061037
0,40861696;0,36652730;-0,00061037
0,40894464;0,27680290;-0,00061037
0,40927232;0,36652730;-0,00061037
0,40960000;0,36652730;-0,00061037
0,40992768;0,36652730;-0,00061037
0,41025536;0,36652730;-0,00061037
0,41058304;0,27680290;-0,00061037
0,41091072;0,36652730;-0,00061037
0,41123840;0,36652730;-0,00061037
0,41156608;0,36652730;-0,00061037
0,41189376;0,36652730;-0,00061037
0,41222144;0,36652730;-0,00061037
0,41254912;0,36652730;-0,00061037
0,41287680;0,27680290;-0,00061037
0,41320448;0,27680290;-0,00061037
0,41353216;0,36652730;-0,00061037
0,41385984;0,27680290;-0,00061037
0,41418752;0,36652730;-0,00061037
0,41451520;0,27680290;-0,00061037
0,41484288;0,36652730;-0,00061037
0,41517056;0,36652730;-0,00061037
0,41549824;0,36652730;-0,00061037
0,41582592;0,36652730;-0,00061037
0,41615360;0,27680290;-0,00061037
0,41648128;0,36652730;-0,00061037
0,41680896;0,27680290;-0,00061037
0,41713664;0,36652730;-0,00061037
0,41746432;0,27680290;-0,00061037
0,41779200;0,36652730;-0,00061037
0,41811968;0,27680290;-0,00061037
0,41844736;0,27680290;-0,00061037
0,41877504;0,27680290;-0,00061037
0,41910272;0,36652730;-0,00061037
0,41943040;0,27680290;-0,00061037
0,41975808;0,27680290;-0,00061037
0,42008576;0,27680290;-0,00061037
0,42041344;0,27680290;-0,00061037
0,42074112;0,27680290;-0,00061037
0,42106880;0,27680290;-0,00061037
0,42139648;0,27680290;-0,00061037
0,42172416;0,27680290;-0,00061037
0,42205184;0,27680290;-0,00061037
0,42237952;0,27680290;-0,00061037
0,42270720;0,27680290;-0,00061037
0,42303488;0,27680290;-0,00061037
0,42336256;0,27680290;-0,00061037
0,42369024;0,27680290;0,09063997
0,42401792;0,27680290;-0,00061037
0,42434560;0,27680290;-0,00061037
0,42467328;0,27680290;-0,00061037
0,42500096;0,27680290;-0,00061037
0,42532864;0,27680290;0,09063997
0,42565632;0,27680290;-0,00061037
0,42598400;0,27680290;-0,00061037
0,42631168;0,27680290;-0,00061037
0,42663936;0,27680290;-0,00061037
0,42696704;0,27680290;-0,00061037
0,42729472;0,27680290;-0,00061037
0,42762240;0,27680290;-0,00061037
0,42795008;0,27680290;-0,00061037
0,42827776;0,27680290;-0,00061037
0,42860544;0,27680290;-0,00061037
0,42893312;0,27680290;-0,00061037
0,42926080;0,27680290;-0,00061037
0,42958848;0,27680290;-0,00061037
0,42991616;0,27680290;-0,00061037
0,43024384;0,27680290;-0,00061037
0,43057152;0,27680290;-0,00061037
0,43089920;0,27680290;-0,00061037
0,43122688;0,27680290;-0,00061037
0,43155456;0,27680290;-0,00061037
0,43188224;0,27680290;-0,00061037
0,43220992;0,27680290;-0,00061037
0,43253760;0,27680290;-0,00061037
0,43286528;0,27680290;0,09063997
0,43319296;0,27680290;-0,00061037
0,43352064;0,27680290;-0,00061037
0,43384832;0,27680290;-0,00061037
0,43417600;0,27680290;-0,00061037
0,43450368;0,27680290;-0,00061037
0,43483136;0,27680290;-0,00061037
0,43515904;0,27680290;-0,00061037
0,43548672;0,27680290;-0,00061037
0,43581440;0,27680290;-0,00061037
0,43614208;0,27680290;-0,00061037
0,43646976;0,27680290;-0,00061037
0,43679744;0,27680290;-0,00061037
0,43712512;0,27680290;-0,00061037
0,43745280;0,27680290;-0,00061037
0,43778048;0,27680290;-0,00061037
0,43810816;0,27680290;-0,00061037
0,43843584;0,27680290;-0,00061037
0,43876352;0,27680290;-0,00061037
0,43909120;0,27680290;-0,00061037
0,43941888;0,27680290;-0,00061037
0,43974656;0,27680290;-0,00061037
0,44007424;0,27680290;-0,00061037
0,44040192;0,27680290;-0,00061037
0,44072960;0,27680290;-0,00061037
0,44105728;0,27680290;-0,00061037
0,44138496;0,27680290;-0,00061037
0,44171264;0,27680290;-0,00061037
0,44204032;0,27680290;-0,00061037
0,44236800;0,27680290;-0,00061037
0,44269568;0,27680290;-0,00061037
0,44302336;0,18707850;-0,00061037
0,44335104;0,18707850;-0,00061037
0,44367872;0,27680290;-0,00061037
0,44400640;0,18707850;-0,00061037
0,44433408;0,18707850;-0,00061037
0,44466176;0,27680290;-0,00061037
0,44498944;0,27680290;-0,00061037
0,44531712;0,27680290;-0,00061037
0,44564480;0,27680290;-0,00061037
0,44597248;0,18707850;-0,00061037
0,44630016;0,18707850;-0,00061037
0,44662784;0,18707850;-0,00061037
0,44695552;0,27680290;-0,00061037
0,44728320;0,27680290;-0,00061037
0,44761088;0,18707850;-0,00061037
0,44793856;0,27680290;-0,00061037
0,44826624;0,27680290;-0,00061037
0,44859392;0,18707850;-0,00061037
0,44892160;0,27680290;-0,00061037
0,44924928;0,27680290;-0,00061037
0,44957696;0,18707850;-0,00061037
0,44990464;0,18707850;-0,00061037
0,45023232;0,27680290;-0,00061037
0,45056000;0,18707850;-0,00061037
0,45088768;0,18707850;-0,00061037
0,45121536;0,27680290;-0,00061037
0,45154304;0,18707850;-0,00061037
0,45187072;0,27680290;-0,00061037
0,45219840;0,27680290;-0,00061037
0,45252608;0,18707850;-0,00061037
0,45285376;0,27680290;-0,00061037
0,45318144;0,18707850;-0,00061037
0,45350912;0,18707850;-0,00061037
0,45383680;0,18707850;-0,00061037
0,45416448;0,27680290;-0,00061037
0,45449216;0,18707850;-0,00061037
0,45481984;0,18707850;-0,00061037
0,45514752;0,18707850;-0,00061037
0,45547520;0,18707850;-0,00061037
0,45580288;0,18707850;-0,00061037
0,45613056;0,18707850;-0,00061037
0,45645824;0,18707850;-0,00061037
0,45678592;0,18707850;-0,00061037
0,45711360;0,18707850;-0,00061037
0,45744128;0,18707850;-0,00061037
0,45776896;0,18707850;-0,00061037
0,45809664;0,18707850;-0,00061037
0,45842432;0,18707850;-0,00061037
0,45875200;0,18707850;-0,00061037
0,45907968;0,18707850;-0,00061037
0,45940736;0,18707850;-0,00061037
0,45973504;0,18707850;-0,00061037
0,46006272;0,18707850;-0,00061037
0,46039040;0,18707850;-0,00061037
0,46071808;0,18707850;-0,00061037
0,46104576;0,18707850;-0,00061037
0,46137344;0,18707850;-0,00061037
0,46170112;0,18707850;-0,00061037
0,46202880;0,18707850;-0,00061037
0,46235648;0,18707850;-0,00061037
0,46268416;0,18707850;-0,00061037
0,46301184;0,18707850;-0,00061037
0,46333952;0,18707850;-0,00061037
0,46366720;0,18707850;-0,00061037
0,46399488;0,18707850;-0,00061037
0,46432256;0,18707850;-0,00061037
0,46465024;0,18707850;-0,00061037
0,46497792;0,18707850;-0,00061037
0,46530560;0,18707850;-0,00061037
0,46563328;0,18707850;-0,00061037
0,46596096;0,18707850;-0,00061037
0,46628864;0,18707850;-0,00061037
0,46661632;0,18707850;-0,00061037
0,46694400;0,18707850;-0,00061037
0,46727168;0,18707850;-0,00061037
0,46759936;0,18707850;-0,00061037
0,46792704;0,18707850;-0,00061037
0,46825472;0,18707850;-0,00061037
0,46858240;0,18707850;-0,00061037
0,46891008;0,18707850;-0,00061037
0,46923776;0,18707850;-0,00061037
0,46956544;0,18707850;-0,00061037
0,46989312;0,18707850;-0,00061037
0,47022080;0,18707850;-0,00061037
0,47054848;0,18707850;-0,00061037
0,47087616;0,18707850;0,09063997
0,47120384;0,18707850;-0,00061037
0,47153152;0,18707850;-0,00061037
0,47185920;0,18707850;-0,00061037
0,47218688;0,18707850;-0,00061037
0,47251456;0,18707850;-0,00061037
0,47284224;0,18707850;-0,00061037
0,47316992;0,18707850;-0,00061037
0,47349760;0,18707850;-0,00061037
0,47382528;0,18707850;-0,00061037
0,47415296;0,18707850;-0,00061037
0,47448064;0,18707850;-0,00061037
0,47480832;0,18707850;-0,00061037
0,47513600;0,18707850;-0,00061037
0,47546368;0,18707850;-0,00061037
0,47579136;0,18707850;-0,00061037
0,47611904;0,18707850;-0,00061037
0,47644672;0,18707850;-0,00061037
0,47677440;0,18707850;-0,00061037
0,47710208;0,18707850;-0,00061037
0,47742976;0,18707850;-0,00061037
0,47775744;0,18707850;-0,00061037
0,47808512;0,18707850;-0,00061037
0,47841280;0,18707850;-0,00061037
0,47874048;0,18707850;-0,00061037
0,47906816;0,18707850;-0,00061037
0,47939584;0,18707850;-0,00061037
0,47972352;0,18707850;-0,00061037
0,48005120;0,18707850;-0,00061037
0,48037888;0,18707850;-0,00061037
0,48070656;0,18707850;-0,00061037
0,48103424;0,18707850;-0,00061037
0,48136192;0,18707850;-0,00061037
0,48168960;0,18707850;0,09063997
0,48201728;0,18707850;-0,00061037
0,48234496;0,18707850;-0,00061037
0,48267264;0,18707850;-0,00061037
0,48300032;0,18707850;-0,00061037
0,48332800;0,18707850;-0,00061037
0,48365568;0,18707850;-0,00061037
0,48398336;0,18707850;-0,00061037
0,48431104;0,18707850;-0,00061037
0,48463872;0,18707850;-0,00061037
0,48496640;0,18707850;-0,00061037
0,48529408;0,18707850;-0,00061037
0,48562176;0,18707850;-0,00061037
0,48594944;0,18707850;-0,00061037
0,48627712;0,18707850;-0,00061037
0,48660480;0,18707850;-0,00061037
0,48693248;0,18707850;0,09063997
0,48726016;0,18707850;-0,00061037
0,48758784;0,18707850;-0,00061037
0,48791552;0,18707850;-0,00061037
0,48824320;0,18707850;-0,00061037
0,48857088;0,18707850;-0,00061037
0,48889856;0,18707850;-0,00061037
0,48922624;0,18707850;-0,00061037
0,48955392;0,18707850;-0,00061037
0,48988160;0,18707850;-0,00061037
0,49020928;0,18707850;-0,00061037
0,49053696;0,18707850;-0,00061037
0,49086464;0,18707850;-0,00061037
0,49119232;0,18707850;-0,00061037
0,49152000;0,18707850;-0,00061037
0,49184768;0,18707850;-0,00061037
0,49217536;0,18707850;-0,00061037
0,49250304;0,09735405;-0,00061037
0,49283072;0,09735405;-0,00061037
0,49315840;0,18707850;-0,00061037
0,49348608;0,18707850;-0,00061037
0,49381376;0,09735405;-0,00061037
0,49414144;0,18707850;0,09063997
0,49446912;0,18707850;-0,00061037
0,49479680;0,18707850;-0,00061037
0,49512448;0,18707850;-0,00061037
0,49545216;0,18707850;-0,00061037
0,49577984;0,09735405;-0,00061037
0,49610752;0,18707850;-0,00061037
0,49643520;0,18707850;-0,00061037
0,49676288;0,18707850;-0,00061037
0,49709056;0,18707850;-0,00061037
0,49741824;0,18707850;-0,00061037
0,49774592;0,18707850;-0,00061037
0,49807360;0,18707850;-0,00061037
0,49840128;0,18707850;-0,00061037
0,49872896;0,09735405;-0,00061037
0,49905664;0,09735405;-0,00061037
0,49938432;0,18707850;-0,00061037
0,49971200;0,09735405;-0,00061037
0,50003968;0,18707850;-0,00061037
0,50036736;0,18707850;-0,00061037
0,50069504;0,18707850;-0,00061037
0,50102272;0,09735405;-0,00061037
0,50135040;0,18707850;-0,00061037
0,50167808;0,09735405;-0,00061037
0,50200576;0,09735405;-0,00061037
0,50233344;0,09735405;-0,00061037
0,50266112;0,18707850;-0,00061037
0,50298880;0,18707850;-0,00061037
0,50331648;0,18707850;-0,00061037
0,50364416;0,18707850;-0,00061037
0,50397184;0,09735405;-0,00061037
0,50429952;0,18707850;-0,00061037
0,50462720;0,09735405;-0,00061037
0,50495488;0,09735405;-0,00061037
0,50528256;0,09735405;-0,00061037
0,50561024;0,09735405;-0,00061037
0,50593792;0,18707850;-0,00061037
0,50626560;0,18707850;-0,00061037
0,50659328;0,09735405;-0,00061037
0,50692096;0,09735405;-0,00061037
0,50724864;0,18707850;-0,00061037
0,50757632;0,09735405;-0,00061037
0,50790400;0,09735405;0,09063997
0,50823168;0,09735405;-0,00061037
0,50855936;0,09735405;-0,00061037
0,50888704;0,09735405;-0,00061037
0,50921472;0,18707850;-0,00061037
0,50954240;0,09735405;-0,00061037
0,50987008;0,09735405;-0,00061037
0,51019776;0,18707850;-0,00061037
0,51052544;0,09735405;-0,00061037
0,51085312;0,09735405;-0,00061037
0,51118080;0,18707850;-0,00061037
0,51150848;0,18707850;-0,00061037
0,51183616;0,09735405;-0,00061037
0,51216384;0,09735405;-0,00061037
0,51249152;0,09735405;-0,00061037
0,51281920;0,09735405;-0,00061037
0,51314688;0,09735405;-0,00061037
0,51347456;0,09735405;-0,00061037
0,51380224;0,18707850;-0,00061037
0,51412992;0,09735405;-0,00061037
0,51445760;0,09735405;-0,00061037
0,51478528;0,09735405;-0,00061037
0,51511296;0,09735405;-0,00061037
0,51544064;0,09735405;-0,00061037
0,51576832;0,18707850;-0,00061037
0,51609600;0,09735405;-0,00061037
0,51642368;0,09735405;-0,00061037
0,51675136;0,09735405;-0,00061037
0,51707904;0,18707850;2,00384500
0,51740672;0,18707850;2,00384500
0,51773440;0,18707850;2,00384500
0,51806208;0,09735405;2,00384500
0,51838976;0,18707850;2,00384500
0,51871744;0,18707850;2,00384500
0,51904512;0,18707850;2,00384500
0,51937280;0,18707850;2,00384500
0,51970048;0,18707850;2,00384500
0,52002816;0,18707850;2,00384500
0,52035584;0,18707850;2,00384500
0,52068352;0,18707850;2,00384500
0,52101120;0,18707850;2,00384500
0,52133888;0,18707850;2,00384500
0,52166656;0,18707850;2,00384500
0,52199424;0,18707850;2,00384500
0,52232192;0,18707850;2,00384500
0,52264960;0,18707850;2,00384500
0,52297728;0,18707850;2,00384500
0,52330496;0,18707850;2,00384500
0,52363264;0,27680290;2,00384500
0,52396032;0,27680290;2,00384500
0,52428800;0,27680290;2,00384500
0,52461568;0,27680290;2,00384500
0,52494336;0,27680290;2,00384500
0,52527104;0,27680290;2,00384500
0,52559872;0,27680290;2,00384500
0,52592640;0,27680290;2,00384500
0,52625408;0,27680290;2,00384500
0,52658176;0,27680290;2,00384500
0,52690944;0,27680290;2,00384500
0,52723712;0,27680290;2,00384500
0,52756480;0,27680290;2,00384500
0,52789248;0,27680290;2,00384500
0,52822016;0,36652730;2,00384500
0,52854784;0,27680290;2,00384500
0,52887552;0,27680290;2,00384500
0,52920320;0,36652730;2,00384500
0,52953088;0,27680290;2,00384500
0,52985856;0,36652730;2,00384500
0,53018624;0,27680290;2,00384500
0,53051392;0,36652730;2,00384500
0,53084160;0,36652730;2,00384500
0,53116928;0,36652730;2,00384500
0,53149696;0,36652730;2,00384500
0,53182464;0,36652730;2,00384500
0,53215232;0,36652730;2,00384500
0,53248000;0,36652730;2,00384500
0,53280768;0,36652730;2,00384500
0,53313536;0,36652730;2,00384500
0,53346304;0,36652730;2,00384500
0,53379072;0,36652730;2,00384500
0,53411840;0,45655690;2,00384500
0,53444608;0,36652730;2,00384500
0,53477376;0,45655690;2,00384500
0,53510144;0,45655690;2,00384500
0,53542912;0,45655690;2,00384500
0,53575680;0,45655690;2,00384500
0,53608448;0,45655690;2,00384500
0,53641216;0,45655690;2,00384500
0,53673984;0,45655690;2,00384500
0,53706752;0,45655690;2,00384500
0,53739520;0,45655690;2,00384500
0,53772288;0,45655690;2,00384500
0,53805056;0,45655690;2,00384500
0,53837824;0,45655690;2,00384500
0,53870592;0,45655690;2,00384500
0,53903360;0,45655690;2,00384500
0,53936128;0,54628130;2,00384500
0,53968896;0,54628130;2,00384500
0,54001664;0,54628130;2,00384500
0,54034432;0,45655690;2,00384500
0,54067200;0,54628130;2,00384500
0,54099968;0,54628130;2,00384500
0,54132736;0,54628130;2,00384500
0,54165504;0,54628130;2,00384500
0,54198272;0,54628130;2,00384500
0,54231040;0,54628130;2,00384500
0,54263808;0,54628130;2,00384500
0,54296576;0,54628130;2,00384500
0,54329344;0,54628130;2,00384500
0,54362112;0,54628130;2,00384500
0,54394880;0,54628130;2,00384500
0,54427648;0,54628130;2,00384500
0,54460416;0,54628130;2,00384500
0,54493184;0,54628130;2,00384500
0,54525952;0,54628130;2,00384500
0,54558720;0,54628130;2,00384500
0,54591488;0,54628130;2,00384500
0,54624256;0,54628130;2,00384500
0,54657024;0,54628130;2,00384500
0,54689792;0,54628130;2,00384500
0,54722560;0,54628130;2,00384500
0,54755328;0,63600580;2,00384500
0,54788096;0,63600580;2,00384500
0,54820864;0,63600580;2,00384500
0,54853632;0,63600580;2,00384500
0,54886400;0,63600580;2,00384500
0,54919168;0,63600580;2,00384500
0,54951936;0,63600580;2,00384500
0,54984704;0,63600580;2,00384500
0,55017472;0,63600580;2,00384500
0,55050240;0,63600580;2,00384500
0,55083008;0,63600580;2,00384500
0,55115776;0,63600580;2,00384500
0,55148544;0,63600580;2,00384500
0,55181312;0,63600580;2,00384500
0,55214080;0,63600580;2,00384500
0,55246848;0,63600580;2,00384500
0,55279616;0,63600580;2,00384500
0,55312384;0,72573020;2,00384500
0,55345152;0,63600580;2,00384500
0,55377920;0,63600580;2,00384500
0,55410688;0,72573020;2,00384500
0,55443456;0,63600580;2,00384500
0,55476224;0,72573020;2,00384500
0,55508992;0,63600580;2,00384500
0,55541760;0,72573020;2,00384500
0,55574528;0,72573020;2,00384500
0,55607296;0,72573020;2,00384500
0,55640064;0,72573020;2,00384500
0,55672832;0,72573020;2,00384500
0,55705600;0,72573020;2,00384500
0,55738368;0,72573020;2,00384500
0,55771136;0,72573020;2,00384500
0,55803904;0,72573020;2,00384500
0,55836672;0,72573020;2,00384500
0,55869440;0,72573020;2,00384500
0,55902208;0,72573020;2,00384500
0,55934976;0,72573020;2,00384500
0,55967744;0,72573020;2,00384500
0,56000512;0,72573020;2,00384500
0,56033280;0,81575980;2,00384500
0,56066048;0,72573020;2,00384500
0,56098816;0,72573020;2,00384500
0,56131584;0,81575980;2,00384500
0,56164352;0,81575980;2,00384500
0,56197120;0,81575980;2,00384500
0,56229888;0,81575980;2,00384500
0,56262656;0,81575980;2,00384500
0,56295424;0,81575980;2,00384500
0,56328192;0,81575980;2,00384500
0,56360960;0,81575980;2,00384500
0,56393728;0,81575980;2,00384500
0,56426496;0,81575980;2,00384500
0,56459264;0,81575980;2,00384500
0,56492032;0,81575980;2,00384500
0,56524800;0,81575980;2,00384500
0,56557568;0,81575980;2,00384500
0,56590336;0,81575980;2,00384500
0,56623104;0,81575980;2,00384500
0,56655872;0,81575980;2,00384500
0,56688640;0,81575980;2,00384500
0,56721408;0,81575980;2,00384500
0,56754176;0,90548420;2,00384500
0,56786944;0,90548420;2,00384500
0,56819712;0,90548420;2,00384500
0,56852480;0,81575980;2,00384500
0,56885248;0,81575980;2,00384500
0,56918016;0,81575980;2,00384500
0,56950784;0,90548420;2,00384500
0,56983552;0,90548420;2,00384500
0,57016320;0,90548420;2,00384500
0,57049088;0,90548420;2,00384500
0,57081856;0,90548420;2,00384500
0,57114624;0,90548420;2,00384500
0,57147392;0,90548420;2,00384500
0,57180160;0,90548420;2,00384500
0,57212928;0,90548420;2,00384500
0,57245696;0,90548420;2,00384500
0,57278464;0,90548420;2,00384500
0,57311232;0,90548420;2,00384500
0,57344000;0,90548420;2,00384500
0,57376768;0,90548420;2,00384500
0,57409536;0,90548420;2,00384500
0,57442304;0,90548420;2,00384500
0,57475072;0,90548420;2,00384500
0,57507840;0,90548420;2,00384500
0,57540608;0,90548420;2,00384500
0,57573376;0,90548420;2,00384500
0,57606144;0,90548420;2,00384500
0,57638912;0,90548420;2,00384500
0,57671680;0,99520860;2,00384500
0,57704448;0,90548420;2,00384500
0,57737216;0,90548420;2,00384500
0,57769984;0,90548420;2,00384500
0,57802752;0,90548420;2,00384500
0,57835520;0,90548420;2,00384500
0,57868288;0,99520860;2,00384500
0,57901056;0,90548420;2,00384500
0,57933824;0,99520860;2,00384500
0,57966592;0,99520860;2,00384500
0,57999360;0,90548420;2,00384500
0,58032128;0,99520860;2,00384500
0,58064896;0,99520860;2,00384500
0,58097664;0,99520860;2,00384500
0,58130432;0,99520860;2,00384500
0,58163200;0,99520860;2,00384500
0,58195968;0,99520860;2,00384500
0,58228736;0,99520860;2,00384500
0,58261504;0,99520860;2,00384500
0,58294272;0,99520860;2,00384500
0,58327040;0,99520860;2,00384500
0,58359808;0,99520860;2,00384500
0,58392576;0,99520860;2,00384500
0,58425344;0,99520860;2,00384500
0,58458112;0,99520860;2,00384500
0,58490880;0,99520860;2,00384500
0,58523648;0,99520860;2,00384500
0,58556416;0,99520860;2,00384500
0,58589184;0,99520860;2,00384500
0,58621952;0,99520860;2,00384500
0,58654720;0,99520860;2,00384500
0,58687488;0,99520860;2,00384500
0,58720256;0,99520860;2,00384500
0,58753024;0,99520860;2,00384500
0,58785792;0,99520860;2,00384500
0,58818560;0,99520860;2,00384500
0,58851328;0,99520860;2,00384500
0,58884096;0,99520860;2,00384500
0,58916864;0,99520860;2,00384500
0,58949632;1,08493300;2,00384500
0,58982400;0,99520860;2,00384500
0,59015168;1,08493300;2,00384500
0,59047936;1,08493300;2,00384500
0,59080704;0,99520860;2,00384500
0,59113472;1,08493300;2,00384500
0,59146240;0,99520860;2,00384500
0,59179008;1,08493300;2,00384500
0,59211776;1,08493300;2,00384500
0,59244544;1,08493300;2,00384500
0,59277312;1,08493300;2,00384500
0,59310080;1,08493300;2,00384500
0,59342848;1,08493300;2,00384500
0,59375616;1,08493300;2,00384500
0,59408384;1,08493300;2,00384500
0,59441152;1,08493300;2,00384500
0,59473920;1,08493300;2,00384500
0,59506688;1,08493300;2,00384500
0,59539456;1,08493300;2,00384500
0,59572224;1,08493300;2,00384500
0,59604992;1,08493300;2,00384500
0,59637760;1,08493300;2,00384500
0,59670528;1,08493300;2,00384500
0,59703296;1,08493300;2,00384500
0,59736064;1,08493300;2,00384500
0,59768832;1,08493300;2,00384500
0,59801600;1,08493300;2,00384500
0,59834368;1,08493300;2,00384500
0,59867136;1,08493300;2,00384500
0,59899904;1,08493300;2,00384500
0,59932672;1,08493300;2,00384500
0,59965440;1,08493300;2,00384500
0,59998208;1,08493300;2,00384500
0,60030976;1,08493300;2,00384500
0,60063744;1,08493300;2,00384500
0,60096512;1,08493300;2,00384500
0,60129280;1,08493300;2,00384500
0,60162048;1,08493300;2,00384500
0,60194816;1,08493300;2,00384500
0,60227584;1,17496300;2,00384500
0,60260352;1,08493300;2,00384500
0,60293120;1,17496300;2,00384500
0,60325888;1,08493300;2,00384500
0,60358656;1,17496300;2,00384500
0,60391424;1,17496300;2,00384500
0,60424192;1,17496300;2,00384500
0,60456960;1,17496300;2,00384500
0,60489728;1,17496300;2,00384500
0,60522496;1,17496300;2,00384500
0,60555264;1,17496300;2,00384500
0,60588032;1,17496300;2,00384500
0,60620800;1,17496300;2,00384500
0,60653568;1,17496300;2,00384500
0,60686336;1,17496300;2,00384500
0,60719104;1,17496300;2,00384500
0,60751872;1,17496300;2,00384500
0,60784640;1,17496300;2,00384500
0,60817408;1,17496300;2,00384500
0,60850176;1,17496300;2,00384500
0,60882944;1,17496300;2,00384500
0,60915712;1,17496300;2,00384500
0,60948480;1,26468700;2,00384500
0,60981248;1,17496300;2,00384500
0,61014016;1,26468700;2,00384500
0,61046784;1,17496300;2,00384500
0,61079552;1,17496300;2,00384500
0,61112320;1,17496300;2,00384500
0,61145088;1,17496300;2,00384500
0,61177856;1,26468700;2,00384500
0,61210624;1,17496300;2,00384500
0,61243392;1,26468700;2,00384500
0,61276160;1,26468700;2,00384500
0,61308928;1,17496300;2,00384500
0,61341696;1,26468700;2,00384500
0,61374464;1,17496300;2,00384500
0,61407232;1,26468700;2,00384500
0,61440000;1,26468700;2,00384500
0,61472768;1,26468700;2,00384500
0,61505536;1,26468700;2,00384500
0,61538304;1,17496300;2,00384500
0,61571072;1,26468700;2,00384500
0,61603840;1,17496300;2,00384500
0,61636608;1,26468700;2,00384500
0,61669376;1,26468700;2,00384500
0,61702144;1,26468700;2,00384500
0,61734912;1,17496300;2,00384500
0,61767680;1,17496300;2,00384500
0,61800448;1,26468700;2,00384500
0,61833216;1,26468700;2,00384500
0,61865984;1,26468700;2,00384500
0,61898752;1,26468700;2,00384500
0,61931520;1,26468700;2,00384500
0,61964288;1,26468700;2,00384500
0,61997056;1,26468700;2,00384500
0,62029824;1,26468700;2,00384500
0,62062592;1,26468700;2,00384500
0,62095360;1,26468700;2,00384500
0,62128128;1,26468700;2,00384500
0,62160896;1,26468700;2,00384500
0,62193664;1,26468700;2,00384500
0,62226432;1,26468700;2,00384500
0,62259200;1,26468700;2,00384500
0,62291968;1,26468700;2,00384500
0,62324736;1,26468700;2,00384500
0,62357504;1,26468700;2,00384500
0,62390272;1,26468700;2,00384500
0,62423040;1,26468700;2,00384500
0,62455808;1,26468700;2,00384500
0,62488576;1,26468700;2,00384500
0,62521344;1,26468700;2,00384500
0,62554112;1,26468700;2,00384500
0,62586880;1,26468700;2,09479000
0,62619648;1,26468700;2,00384500
0,62652416;1,26468700;2,00384500
0,62685184;1,26468700;2,00384500
0,62717952;1,26468700;2,00384500
0,62750720;1,26468700;2,00384500
0,62783488;1,26468700;2,00384500
0,62816256;1,26468700;2,00384500
0,62849024;1,26468700;2,00384500
0,62881792;1,26468700;2,00384500
0,62914560;1,26468700;2,00384500
0,62947328;1,26468700;2,00384500
0,62980096;1,26468700;2,00384500
0,63012864;1,26468700;2,00384500
0,63045632;1,35441100;2,00384500
0,63078400;1,26468700;2,00384500
0,63111168;1,35441100;2,00384500
0,63143936;1,26468700;2,00384500
0,63176704;1,26468700;2,00384500
0,63209472;1,35441100;2,00384500
0,63242240;1,26468700;2,00384500
0,63275008;1,26468700;2,00384500
0,63307776;1,26468700;2,00384500
0,63340544;1,35441100;2,00384500
0,63373312;1,35441100;2,00384500
0,63406080;1,35441100;2,00384500
0,63438848;1,26468700;2,00384500
0,63471616;1,35441100;2,00384500
0,63504384;1,26468700;2,00384500
0,63537152;1,35441100;2,00384500
0,63569920;1,35441100;2,00384500
0,63602688;1,35441100;2,00384500
0,63635456;1,35441100;2,00384500
0,63668224;1,35441100;2,00384500
0,63700992;1,26468700;2,00384500
0,63733760;1,35441100;2,00384500
0,63766528;1,35441100;2,00384500
0,63799296;1,35441100;2,00384500
0,63832064;1,35441100;2,00384500
0,63864832;1,35441100;2,00384500
0,63897600;1,35441100;2,00384500
0,63930368;1,26468700;2,00384500
0,63963136;1,35441100;2,00384500
0,63995904;1,35441100;2,00384500
0,64028672;1,35441100;2,00384500
0,64061440;1,35441100;2,00384500
0,64094208;1,35441100;2,00384500
0,64126976;1,35441100;2,00384500
0,64159744;1,35441100;2,00384500
0,64192512;1,35441100;2,00384500
0,64225280;1,35441100;2,00384500
0,64258048;1,35441100;2,00384500
0,64290816;1,35441100;2,00384500
0,64323584;1,35441100;2,00384500
0,64356352;1,35441100;2,00384500
0,64389120;1,35441100;2,00384500
0,64421888;1,35441100;2,00384500
0,64454656;1,35441100;2,00384500
0,64487424;1,35441100;2,00384500
0,64520192;1,35441100;2,00384500
0,64552960;1,35441100;2,00384500
0,64585728;1,35441100;2,00384500
0,64618496;1,35441100;2,00384500
0,64651264;1,35441100;2,00384500
0,64684032;1,35441100;2,00384500
0,64716800;1,35441100;2,00384500
0,64749568;1,44413600;2,00384500
0,64782336;1,35441100;2,00384500
0,64815104;1,35441100;2,00384500
0,64847872;1,35441100;2,09479000
0,64880640;1,35441100;2,00384500
0,64913408;1,35441100;2,00384500
0,64946176;1,35441100;2,00384500
0,64978944;1,35441100;2,00384500
0,65011712;1,44413600;2,00384500
0,65044480;1,44413600;2,00384500
0,65077248;1,35441100;2,00384500
0,65110016;1,44413600;2,00384500
0,65142784;1,35441100;2,00384500
0,65175552;1,44413600;2,00384500
0,65208320;1,44413600;2,00384500
0,65241088;1,35441100;2,00384500
0,65273856;1,35441100;2,00384500
0,65306624;1,35441100;2,00384500
0,65339392;1,44413600;2,00384500
0,65372160;1,35441100;2,00384500
0,65404928;1,35441100;2,00384500
0,65437696;1,35441100;2,00384500
0,65470464;1,44413600;2,00384500
0,65503232;1,44413600;2,00384500
0,65536000;1,44413600;2,00384500
0,65568768;1,44413600;2,00384500
0,65601536;1,44413600;2,00384500
0,65634304;1,44413600;2,00384500
0,65667072;1,44413600;2,00384500
0,65699840;1,44413600;2,00384500
0,65732608;1,44413600;2,00384500
0,65765376;1,44413600;2,00384500
0,65798144;1,44413600;2,00384500
0,65830912;1,44413600;2,00384500
0,65863680;1,44413600;2,00384500
0,65896448;1,44413600;2,00384500
0,65929216;1,44413600;2,00384500
0,65961984;1,44413600;2,00384500
0,65994752;1,44413600;2,00384500
0,66027520;1,44413600;2,00384500
0,66060288;1,44413600;2,00384500
0,66093056;1,44413600;2,00384500
0,66125824;1,35441100;2,00384500
0,66158592;1,44413600;2,00384500
0,66191360;1,44413600;2,00384500
0,66224128;1,44413600;2,00384500
0,66256896;1,44413600;2,00384500
0,66289664;1,44413600;2,00384500
0,66322432;1,44413600;2,00384500
0,66355200;1,44413600;2,00384500
0,66387968;1,44413600;2,00384500
0,66420736;1,44413600;2,00384500
0,66453504;1,44413600;2,00384500
0,66486272;1,44413600;2,00384500
0,66519040;1,44413600;2,00384500
0,66551808;1,44413600;2,00384500
0,66584576;1,44413600;2,00384500
0,66617344;1,44413600;2,00384500
0,66650112;1,44413600;2,00384500
0,66682880;1,44413600;2,00384500
0,66715648;1,44413600;2,00384500
0,66748416;1,44413600;2,00384500
0,66781184;1,44413600;2,00384500
0,66813952;1,44413600;2,00384500
0,66846720;1,44413600;2,00384500
0,66879488;1,44413600;2,00384500
0,66912256;1,44413600;2,00384500
0,66945024;1,44413600;2,00384500
0,66977792;1,44413600;2,00384500
0,67010560;1,44413600;2,00384500
0,67043328;1,44413600;2,00384500
0,67076096;1,44413600;2,00384500
0,67108864;1,44413600;2,00384500
0,67141632;1,53416600;2,00384500
0,67174400;1,44413600;2,00384500
0,67207168;1,53416600;2,00384500
0,67239936;1,44413600;2,00384500
0,67272704;1,44413600;2,00384500
0,67305472;1,44413600;2,00384500
0,67338240;1,44413600;2,00384500
0,67371008;1,44413600;2,00384500
0,67403776;1,44413600;2,00384500
0,67436544;1,44413600;2,00384500
0,67469312;1,44413600;2,00384500
0,67502080;1,44413600;2,00384500
0,67534848;1,44413600;2,00384500
0,67567616;1,53416600;2,00384500
0,67600384;1,53416600;2,00384500
0,67633152;1,53416600;2,00384500
0,67665920;1,53416600;2,00384500
0,67698688;1,44413600;2,00384500
0,67731456;1,44413600;2,00384500
0,67764224;1,53416600;2,00384500
0,67796992;1,53416600;2,00384500
0,67829760;1,44413600;2,00384500
0,67862528;1,53416600;2,00384500
0,67895296;1,53416600;2,00384500
0,67928064;1,44413600;2,00384500
0,67960832;1,53416600;2,00384500
0,67993600;1,44413600;2,00384500
0,68026368;1,53416600;2,00384500
0,68059136;1,53416600;2,00384500
0,68091904;1,53416600;2,00384500
0,68124672;1,53416600;2,00384500
0,68157440;1,62389000;2,00384500
0,68190208;1,53416600;2,00384500
0,68222976;1,53416600;2,00384500
0,68255744;1,44413600;2,00384500
0,68288512;1,44413600;2,00384500
0,68321280;1,53416600;2,00384500
0,68354048;1,53416600;2,00384500
0,68386816;1,53416600;2,00384500
0,68419584;1,53416600;2,00384500
0,68452352;1,53416600;2,00384500
0,68485120;1,53416600;2,00384500
0,68517888;1,53416600;2,00384500
0,68550656;1,53416600;2,00384500
0,68583424;1,53416600;2,00384500
0,68616192;1,44413600;2,00384500
0,68648960;1,53416600;2,00384500
0,68681728;1,53416600;2,00384500
0,68714496;1,53416600;2,00384500
0,68747264;1,44413600;2,00384500
0,68780032;1,53416600;2,00384500
0,68812800;1,53416600;2,00384500
0,68845568;1,62389000;2,00384500
0,68878336;1,62389000;2,00384500
0,68911104;1,53416600;2,00384500
0,68943872;1,53416600;2,00384500
0,68976640;1,53416600;2,00384500
0,69009408;1,53416600;2,00384500
0,69042176;1,53416600;2,00384500
0,69074944;1,53416600;2,00384500
0,69107712;1,62389000;2,00384500
0,69140480;1,62389000;2,00384500
0,69173248;1,62389000;2,00384500
0,69206016;1,53416600;2,00384500
0,69238784;1,53416600;2,00384500
0,69271552;1,53416600;2,00384500
0,69304320;1,53416600;2,00384500
0,69337088;1,53416600;2,00384500
0,69369856;1,53416600;2,00384500
0,69402624;1,53416600;2,00384500
0,69435392;1,53416600;2,00384500
0,69468160;1,53416600;2,00384500
0,69500928;1,62389000;2,00384500
0,69533696;1,53416600;2,00384500
0,69566464;1,53416600;2,00384500
0,69599232;1,62389000;2,00384500
0,69632000;1,53416600;2,00384500
0,69664768;1,62389000;2,00384500
0,69697536;1,62389000;2,00384500
0,69730304;1,62389000;2,00384500
0,69763072;1,53416600;2,00384500
0,69795840;1,53416600;2,00384500
0,69828608;1,62389000;2,00384500
0,69861376;1,53416600;2,00384500
0,69894144;1,53416600;2,00384500
0,69926912;1,62389000;2,00384500
0,69959680;1,53416600;2,00384500
0,69992448;1,62389000;2,00384500
0,70025216;1,62389000;2,00384500
0,70057984;1,62389000;2,00384500
0,70090752;1,53416600;2,00384500
0,70123520;1,62389000;2,00384500
0,70156288;1,53416600;2,00384500
0,70189056;1,62389000;2,00384500
0,70221824;1,62389000;2,00384500
0,70254592;1,62389000;2,00384500
0,70287360;1,62389000;2,00384500
0,70320128;1,62389000;2,00384500
0,70352896;1,62389000;2,00384500
0,70385664;1,62389000;2,00384500
0,70418432;1,62389000;2,00384500
0,70451200;1,53416600;2,00384500
0,70483968;1,53416600;2,00384500
0,70516736;1,53416600;2,00384500
0,70549504;1,62389000;2,00384500
0,70582272;1,62389000;2,00384500
0,70615040;1,62389000;2,00384500
0,70647808;1,62389000;2,00384500
0,70680576;1,62389000;2,00384500
0,70713344;1,62389000;2,00384500
0,70746112;1,62389000;2,00384500
0,70778880;1,53416600;2,00384500
0,70811648;1,62389000;2,00384500
0,70844416;1,62389000;2,00384500
0,70877184;1,62389000;2,00384500
0,70909952;1,62389000;2,00384500
0,70942720;1,62389000;2,00384500
0,70975488;1,62389000;2,00384500
0,71008256;1,62389000;2,00384500
0,71041024;1,62389000;2,00384500
0,71073792;1,62389000;2,00384500
0,71106560;1,62389000;2,00384500
0,71139328;1,62389000;2,00384500
0,71172096;1,62389000;2,00384500
0,71204864;1,62389000;2,00384500
0,71237632;1,62389000;2,00384500
0,71270400;1,62389000;2,00384500
0,71303168;1,62389000;2,00384500
0,71335936;1,62389000;2,00384500
0,71368704;1,62389000;2,00384500
0,71401472;1,62389000;2,00384500
0,71434240;1,62389000;2,00384500
0,71467008;1,62389000;2,00384500
0,71499776;1,62389000;2,00384500
0,71532544;1,62389000;2,00384500
0,71565312;1,62389000;2,00384500
0,71598080;1,62389000;2,00384500
0,71630848;1,62389000;2,00384500
0,71663616;1,62389000;2,00384500
0,71696384;1,62389000;2,00384500
0,71729152;1,62389000;2,00384500
0,71761920;1,62389000;2,00384500
0,71794688;1,62389000;2,00384500
0,71827456;1,62389000;2,00384500
0,71860224;1,62389000;2,00384500
0,71892992;1,62389000;2,00384500
0,71925760;1,62389000;2,00384500
0,71958528;1,62389000;2,00384500
0,71991296;1,62389000;2,00384500
0,72024064;1,62389000;2,00384500
0,72056832;1,62389000;2,00384500
0,72089600;1,62389000;2,00384500
0,72122368;1,62389000;2,00384500
0,72155136;1,62389000;2,00384500
0,72187904;1,62389000;2,00384500
0,72220672;1,62389000;2,00384500
0,72253440;1,62389000;2,00384500
0,72286208;1,62389000;2,00384500
0,72318976;1,62389000;2,00384500
0,72351744;1,62389000;2,00384500
0,72384512;1,62389000;2,00384500
0,72417280;1,62389000;2,00384500
0,72450048;1,62389000;2,00384500
0,72482816;1,62389000;2,00384500
0,72515584;1,62389000;2,00384500
0,72548352;1,62389000;2,00384500
0,72581120;1,62389000;2,00384500
0,72613888;1,62389000;2,00384500
0,72646656;1,62389000;2,09479000
0,72679424;1,62389000;2,00384500
0,72712192;1,62389000;2,00384500
0,72744960;1,62389000;2,00384500
0,72777728;1,62389000;2,00384500
0,72810496;1,62389000;2,00384500
0,72843264;1,62389000;2,00384500
0,72876032;1,62389000;2,00384500
0,72908800;1,62389000;2,00384500
0,72941568;1,62389000;2,00384500
0,72974336;1,62389000;2,00384500
0,73007104;1,62389000;2,00384500
0,73039872;1,62389000;2,00384500
0,73072640;1,62389000;2,00384500
0,73105408;1,62389000;2,00384500
0,73138176;1,62389000;2,00384500
0,73170944;1,62389000;2,00384500
0,73203712;1,62389000;2,00384500
0,73236480;1,62389000;2,00384500
0,73269248;1,62389000;2,00384500
0,73302016;1,62389000;2,00384500
0,73334784;1,62389000;2,00384500
0,73367552;1,62389000;2,00384500
0,73400320;1,62389000;2,00384500
0,73433088;1,62389000;2,00384500
0,73465856;1,62389000;2,00384500
0,73498624;1,62389000;2,00384500
0,73531392;1,62389000;2,00384500
0,73564160;1,62389000;2,00384500
0,73596928;1,62389000;2,00384500
0,73629696;1,62389000;2,00384500
0,73662464;1,62389000;2,00384500
0,73695232;1,62389000;2,00384500
0,73728000;1,62389000;2,00384500
0,73760768;1,62389000;2,00384500
0,73793536;1,62389000;2,00384500
0,73826304;1,62389000;2,00384500
0,73859072;1,71361400;2,00384500
0,73891840;1,62389000;2,00384500
0,73924608;1,62389000;2,00384500
0,73957376;1,62389000;2,00384500
0,73990144;1,71361400;2,00384500
0,74022912;1,62389000;2,00384500
0,74055680;1,62389000;2,00384500
0,74088448;1,62389000;2,00384500
0,74121216;1,71361400;2,00384500
0,74153984;1,62389000;2,00384500
0,74186752;1,62389000;2,00384500
0,74219520;1,71361400;2,00384500
0,74252288;1,62389000;2,00384500
0,74285056;1,62389000;2,00384500
0,74317824;1,62389000;2,00384500
0,74350592;1,62389000;2,00384500
0,74383360;1,62389000;2,00384500
0,74416128;1,71361400;2,00384500
0,74448896;1,62389000;2,00384500
0,74481664;1,62389000;2,00384500
0,74514432;1,62389000;2,00384500
0,74547200;1,71361400;2,00384500
0,74579968;1,71361400;2,00384500
0,74612736;1,71361400;2,00384500
0,74645504;1,71361400;2,00384500
0,74678272;1,62389000;2,00384500
0,74711040;1,62389000;2,00384500
0,74743808;1,62389000;2,00384500
0,74776576;1,71361400;2,00384500
0,74809344;1,62389000;2,09479000
0,74842112;1,62389000;2,00384500
0,74874880;1,62389000;2,00384500
0,74907648;1,62389000;2,00384500
0,74940416;1,62389000;2,00384500
0,74973184;1,62389000;2,00384500
0,75005952;1,62389000;2,00384500
0,75038720;1,71361400;2,00384500
0,75071488;1,62389000;2,00384500
0,75104256;1,71361400;2,00384500
0,75137024;1,62389000;2,00384500
0,75169792;1,62389000;2,00384500
0,75202560;1,71361400;2,00384500
0,75235328;1,71361400;2,00384500
0,75268096;1,71361400;2,00384500
0,75300864;1,62389000;2,00384500
0,75333632;1,71361400;2,00384500
0,75366400;1,71361400;2,00384500
0,75399168;1,71361400;2,00384500
0,75431936;1,71361400;2,00384500
0,75464704;1,62389000;2,00384500
0,75497472;1,62389000;2,00384500
0,75530240;1,71361400;2,00384500
0,75563008;1,71361400;2,00384500
0,75595776;1,71361400;2,00384500
0,75628544;1,71361400;2,00384500
0,75661312;1,62389000;2,00384500
0,75694080;1,71361400;2,00384500
0,75726848;1,71361400;2,00384500
0,75759616;1,62389000;2,00384500
0,75792384;1,71361400;2,00384500
0,75825152;1,71361400;2,00384500
0,75857920;1,62389000;2,00384500
0,75890688;1,71361400;2,00384500
0,75923456;1,71361400;2,00384500
0,75956224;1,71361400;2,00384500
0,75988992;1,71361400;2,00384500
0,76021760;1,71361400;2,00384500
0,76054528;1,71361400;2,00384500
0,76087296;1,62389000;2,00384500
0,76120064;1,71361400;2,00384500
0,76152832;1,71361400;2,00384500
0,76185600;1,71361400;2,00384500
0,76218368;1,71361400;2,00384500
0,76251136;1,62389000;2,00384500
0,76283904;1,71361400;2,00384500
0,76316672;1,71361400;2,00384500
0,76349440;1,71361400;2,00384500
0,76382208;1,71361400;2,09479000
0,76414976;1,71361400;2,00384500
0,76447744;1,71361400;2,00384500
0,76480512;1,71361400;2,00384500
0,76513280;1,71361400;2,00384500
0,76546048;1,71361400;2,00384500
0,76578816;1,71361400;2,00384500
0,76611584;1,71361400;2,00384500
0,76644352;1,71361400;2,00384500
0,76677120;1,71361400;2,00384500
0,76709888;1,71361400;2,00384500
0,76742656;1,71361400;2,00384500
0,76775424;1,71361400;2,00384500
0,76808192;1,71361400;2,00384500
0,76840960;1,71361400;-0,00061037
0,76873728;1,71361400;-0,00061037
0,76906496;1,62389000;-0,00061037
0,76939264;1,71361400;-0,00061037
0,76972032;1,62389000;-0,00061037
0,77004800;1,62389000;-0,00061037
0,77037568;1,62389000;-0,00061037
0,77070336;1,62389000;-0,00061037
0,77103104;1,62389000;-0,00061037
0,77135872;1,62389000;-0,00061037
0,77168640;1,62389000;-0,00061037
0,77201408;1,62389000;-0,00061037
0,77234176;1,62389000;-0,00061037
0,77266944;1,62389000;-0,00061037
0,77299712;1,62389000;-0,00061037
0,77332480;1,62389000;-0,00061037
0,77365248;1,62389000;-0,00061037
0,77398016;1,62389000;-0,00061037
0,77430784;1,62389000;-0,00061037
0,77463552;1,53416600;-0,00061037
0,77496320;1,53416600;-0,00061037
0,77529088;1,62389000;-0,00061037
0,77561856;1,53416600;-0,00061037
0,77594624;1,53416600;0,09063997
0,77627392;1,62389000;-0,00061037
0,77660160;1,53416600;-0,00061037
0,77692928;1,53416600;-0,00061037
0,77725696;1,53416600;-0,00061037
0,77758464;1,53416600;-0,00061037
0,77791232;1,44413600;0,09063997
0,77824000;1,53416600;-0,00061037
0,77856768;1,53416600;-0,00061037
0,77889536;1,44413600;-0,00061037
0,77922304;1,44413600;-0,00061037
0,77955072;1,53416600;-0,00061037
0,77987840;1,44413600;-0,00061037
0,78020608;1,44413600;-0,00061037
0,78053376;1,44413600;-0,00061037
0,78086144;1,44413600;-0,00061037
0,78118912;1,44413600;-0,00061037
0,78151680;1,44413600;-0,00061037
0,78184448;1,44413600;0,09063997
0,78217216;1,44413600;-0,00061037
0,78249984;1,44413600;-0,00061037
0,78282752;1,44413600;-0,00061037
0,78315520;1,35441100;-0,00061037
0,78348288;1,35441100;-0,00061037
0,78381056;1,44413600;-0,00061037
0,78413824;1,44413600;-0,00061037
0,78446592;1,35441100;-0,00061037
0,78479360;1,35441100;-0,00061037
0,78512128;1,35441100;-0,00061037
0,78544896;1,35441100;-0,00061037
0,78577664;1,35441100;-0,00061037
0,78610432;1,35441100;-0,00061037
0,78643200;1,35441100;-0,00061037
0,78675968;1,35441100;-0,00061037
0,78708736;1,35441100;-0,00061037
0,78741504;1,35441100;-0,00061037
0,78774272;1,35441100;-0,00061037
0,78807040;1,35441100;-0,00061037
0,78839808;1,35441100;0,09063997
0,78872576;1,35441100;-0,00061037
0,78905344;1,35441100;-0,00061037
0,78938112;1,35441100;-0,00061037
0,78970880;1,26468700;-0,00061037
0,79003648;1,35441100;-0,00061037
0,79036416;1,26468700;-0,00061037
0,79069184;1,35441100;-0,00061037
0,79101952;1,26468700;-0,00061037
0,79134720;1,26468700;-0,00061037
0,79167488;1,26468700;-0,00061037
0,79200256;1,26468700;-0,00061037
0,79233024;1,26468700;-0,00061037
0,79265792;1,26468700;-0,00061037
0,79298560;1,26468700;-0,00061037
0,79331328;1,26468700;-0,00061037
0,79364096;1,26468700;-0,00061037
0,79396864;1,26468700;-0,00061037
0,79429632;1,26468700;-0,00061037
0,79462400;1,26468700;-0,00061037
0,79495168;1,26468700;-0,00061037
0,79527936;1,26468700;-0,00061037
0,79560704;1,26468700;-0,00061037
0,79593472;1,26468700;-0,00061037
0,79626240;1,26468700;-0,00061037
0,79659008;1,26468700;-0,00061037
0,79691776;1,26468700;-0,00061037
0,79724544;1,26468700;-0,00061037
0,79757312;1,17496300;-0,00061037
0,79790080;1,26468700;-0,00061037
0,79822848;1,26468700;-0,00061037
0,79855616;1,17496300;-0,00061037
0,79888384;1,26468700;-0,00061037
0,79921152;1,17496300;-0,00061037
0,79953920;1,17496300;-0,00061037
0,79986688;1,26468700;-0,00061037
0,80019456;1,26468700;-0,00061037
0,80052224;1,17496300;-0,00061037
0,80084992;1,17496300;-0,00061037
0,80117760;1,17496300;-0,00061037
0,80150528;1,17496300;-0,00061037
0,80183296;1,17496300;-0,00061037
0,80216064;1,17496300;-0,00061037
0,80248832;1,17496300;-0,00061037
0,80281600;1,17496300;-0,00061037
0,80314368;1,17496300;-0,00061037
0,80347136;1,17496300;-0,00061037
0,80379904;1,17496300;-0,00061037
0,80412672;1,17496300;0,09063997
0,80445440;1,17496300;-0,00061037
0,80478208;1,17496300;-0,00061037
0,80510976;1,17496300;-0,00061037
0,80543744;1,08493300;-0,00061037
0,80576512;1,08493300;-0,00061037
0,80609280;1,08493300;-0,00061037
0,80642048;1,08493300;-0,00061037
0,80674816;1,08493300;-0,00061037
0,80707584;1,08493300;-0,00061037
0,80740352;1,08493300;-0,00061037
0,80773120;1,08493300;-0,00061037
0,80805888;1,08493300;-0,00061037
0,80838656;1,08493300;-0,00061037
0,80871424;1,08493300;0,09063997
0,80904192;1,08493300;-0,00061037
0,80936960;1,08493300;-0,00061037
0,80969728;1,08493300;-0,00061037
0,81002496;0,99520860;-0,00061037
0,81035264;1,08493300;-0,00061037
0,81068032;1,08493300;-0,00061037
0,81100800;1,08493300;-0,00061037
0,81133568;0,99520860;-0,00061037
0,81166336;1,08493300;-0,00061037
0,81199104;0,99520860;-0,00061037
0,81231872;1,08493300;-0,00061037
0,81264640;1,08493300;-0,00061037
0,81297408;0,99520860;-0,00061037
0,81330176;0,99520860;-0,00061037
0,81362944;1,08493300;-0,00061037
0,81395712;0,99520860;-0,00061037
0,81428480;1,08493300;-0,00061037
0,81461248;0,99520860;-0,00061037
0,81494016;0,99520860;-0,00061037
0,81526784;0,99520860;-0,00061037
0,81559552;0,99520860;-0,00061037
0,81592320;0,99520860;-0,00061037
0,81625088;0,99520860;-0,00061037
0,81657856;0,99520860;-0,00061037
0,81690624;0,99520860;-0,00061037
0,81723392;0,99520860;-0,00061037
0,81756160;0,99520860;-0,00061037
0,81788928;0,99520860;-0,00061037
0,81821696;0,99520860;-0,00061037
0,81854464;0,99520860;-0,00061037
0,81887232;0,99520860;-0,00061037
0,81920000;0,99520860;-0,00061037
0,81952768;0,99520860;-0,00061037
0,81985536;0,99520860;-0,00061037
0,82018304;0,99520860;-0,00061037
0,82051072;0,99520860;-0,00061037
0,82083840;0,99520860;-0,00061037
0,82116608;0,99520860;-0,00061037
0,82149376;0,90548420;-0,00061037
0,82182144;0,90548420;-0,00061037
0,82214912;0,90548420;-0,00061037
0,82247680;0,99520860;-0,00061037
0,82280447;0,90548420;-0,00061037
0,82313215;0,90548420;-0,00061037
0,82345983;0,90548420;-0,00061037
0,82378751;0,90548420;-0,00061037
0,82411519;0,90548420;-0,00061037
0,82444287;0,99520860;-0,00061037
0,82477055;0,90548420;-0,00061037
0,82509823;0,90548420;-0,00061037
0,82542591;0,90548420;-0,00061037
0,82575359;0,90548420;-0,00061037
0,82608127;0,90548420;-0,00061037
0,82640895;0,90548420;-0,00061037
0,82673663;0,90548420;-0,00061037
0,82706431;0,90548420;-0,00061037
0,82739199;0,90548420;-0,00061037
0,82771967;0,90548420;-0,00061037
0,82804735;0,90548420;-0,00061037
0,82837503;0,90548420;-0,00061037
0,82870271;0,90548420;-0,00061037
0,82903039;0,90548420;-0,00061037
0,82935807;0,90548420;-0,00061037
0,82968575;0,90548420;-0,00061037
0,83001343;0,90548420;-0,00061037
0,83034111;0,81575980;-0,00061037
0,83066879;0,90548420;-0,00061037
0,83099647;0,90548420;-0,00061037
0,83132415;0,90548420;-0,00061037
0,83165183;0,81575980;-0,00061037
0,83197951;0,90548420;0,09063997
0,83230719;0,90548420;-0,00061037
0,83263487;0,90548420;-0,00061037
0,83296255;0,81575980;-0,00061037
0,83329023;0,81575980;-0,00061037
0,83361791;0,81575980;-0,00061037
0,83394559;0,81575980;-0,00061037
0,83427327;0,81575980;-0,00061037
0,83460095;0,81575980;-0,00061037
0,83492863;0,90548420;-0,00061037
0,83525631;0,81575980;-0,00061037
0,83558399;0,81575980;-0,00061037
0,83591167;0,81575980;-0,00061037
0,83623935;0,81575980;0,09063997
0,83656703;0,81575980;-0,00061037
0,83689471;0,81575980;-0,00061037
0,83722239;0,81575980;-0,00061037
0,83755007;0,81575980;-0,00061037
0,83787775;0,81575980;-0,00061037
0,83820543;0,81575980;-0,00061037
0,83853311;0,81575980;0,09063997
0,83886079;0,81575980;-0,00061037
0,83918847;0,81575980;-0,00061037
0,83951615;0,81575980;-0,00061037
0,83984383;0,81575980;-0,00061037
0,84017151;0,72573020;-0,00061037
0,84049919;0,81575980;-0,00061037
0,84082687;0,72573020;-0,00061037
0,84115455;0,72573020;-0,00061037
0,84148223;0,81575980;-0,00061037
0,84180991;0,81575980;-0,00061037
0,84213759;0,81575980;-0,00061037
0,84246527;0,81575980;-0,00061037
0,84279295;0,72573020;-0,00061037
0,84312063;0,81575980;-0,00061037
0,84344831;0,72573020;-0,00061037
0,84377599;0,72573020;-0,00061037
0,84410367;0,72573020;-0,00061037
0,84443135;0,72573020;-0,00061037
0,84475903;0,72573020;-0,00061037
0,84508671;0,72573020;-0,00061037
0,84541439;0,72573020;-0,00061037
0,84574207;0,72573020;-0,00061037
0,84606975;0,72573020;-0,00061037
0,84639743;0,72573020;-0,00061037
0,84672511;0,72573020;-0,00061037
0,84705279;0,72573020;-0,00061037
0,84738047;0,72573020;-0,00061037
0,84770815;0,72573020;-0,00061037
0,84803583;0,72573020;-0,00061037
0,84836351;0,72573020;-0,00061037
0,84869119;0,72573020;-0,00061037
0,84901887;0,72573020;-0,00061037
0,84934655;0,72573020;-0,00061037
0,84967423;0,72573020;-0,00061037
0,85000191;0,72573020;-0,00061037
0,85032959;0,63600580;-0,00061037
0,85065727;0,63600580;-0,00061037
0,85098495;0,72573020;-0,00061037
0,85131263;0,63600580;-0,00061037
0,85164031;0,63600580;-0,00061037
0,85196799;0,63600580;-0,00061037
0,85229567;0,72573020;-0,00061037
0,85262335;0,72573020;-0,00061037
0,85295103;0,63600580;-0,00061037
0,85327871;0,72573020;-0,00061037
0,85360639;0,63600580;-0,00061037
0,85393407;0,72573020;-0,00061037
0,85426175;0,63600580;-0,00061037
0,85458943;0,63600580;-0,00061037
0,85491711;0,63600580;-0,00061037
0,85524479;0,63600580;-0,00061037
0,85557247;0,63600580;-0,00061037
0,85590015;0,63600580;-0,00061037
0,85622783;0,63600580;-0,00061037
0,85655551;0,63600580;-0,00061037
0,85688319;0,63600580;-0,00061037
0,85721087;0,63600580;-0,00061037
0,85753855;0,63600580;-0,00061037
0,85786623;0,63600580;-0,00061037
0,85819391;0,63600580;-0,00061037
0,85852159;0,63600580;-0,00061037
0,85884927;0,63600580;-0,00061037
0,85917695;0,63600580;-0,00061037
0,85950463;0,63600580;-0,00061037
0,85983231;0,63600580;-0,00061037
0,86015999;0,63600580;-0,00061037
0,86048767;0,63600580;-0,00061037
0,86081535;0,63600580;-0,00061037
0,86114303;0,63600580;-0,00061037
0,86147071;0,63600580;-0,00061037
0,86179839;0,63600580;-0,00061037
0,86212607;0,63600580;-0,00061037
0,86245375;0,63600580;-0,00061037
0,86278143;0,63600580;0,09063997
0,86310911;0,63600580;-0,00061037
0,86343679;0,63600580;-0,00061037
0,86376447;0,63600580;-0,00061037
0,86409215;0,63600580;-0,00061037
0,86441983;0,63600580;-0,00061037
0,86474751;0,63600580;-0,00061037
0,86507519;0,63600580;-0,00061037
0,86540287;0,54628130;-0,00061037
0,86573055;0,63600580;-0,00061037
0,86605823;0,54628130;-0,00061037
0,86638591;0,63600580;-0,00061037
0,86671359;0,63600580;-0,00061037
0,86704127;0,63600580;-0,00061037
0,86736895;0,63600580;-0,00061037
0,86769663;0,54628130;0,09063997
0,86802431;0,54628130;-0,00061037
0,86835199;0,54628130;-0,00061037
0,86867967;0,54628130;-0,00061037
0,86900735;0,54628130;-0,00061037
0,86933503;0,54628130;-0,00061037
0,86966271;0,63600580;-0,00061037
0,86999039;0,54628130;-0,00061037
0,87031807;0,54628130;-0,00061037
0,87064575;0,54628130;-0,00061037
0,87097343;0,54628130;-0,00061037
0,87130111;0,54628130;-0,00061037
0,87162879;0,54628130;-0,00061037
0,87195647;0,54628130;-0,00061037
0,87228415;0,54628130;-0,00061037
0,87261183;0,54628130;-0,00061037
0,87293951;0,54628130;-0,00061037
0,87326719;0,54628130;-0,00061037
0,87359487;0,54628130;-0,00061037
0,87392255;0,54628130;-0,00061037
0,87425023;0,54628130;-0,00061037
0,87457791;0,54628130;0,09063997
0,87490559;0,54628130;-0,00061037
0,87523327;0,54628130;-0,00061037
0,87556095;0,54628130;-0,00061037
0,87588863;0,54628130;-0,00061037
0,87621631;0,54628130;-0,00061037
0,87654399;0,54628130;-0,00061037
0,87687167;0,54628130;-0,00061037
0,87719935;0,54628130;-0,00061037
0,87752703;0,54628130;-0,00061037
0,87785471;0,54628130;-0,00061037
0,87818239;0,54628130;-0,00061037
0,87851007;0,54628130;-0,00061037
0,87883775;0,54628130;-0,00061037
0,87916543;0,45655690;-0,00061037
0,87949311;0,54628130;-0,00061037
0,87982079;0,54628130;-0,00061037
0,88014847;0,54628130;-0,00061037
0,88047615;0,54628130;-0,00061037
0,88080383;0,54628130;-0,00061037
0,88113151;0,54628130;-0,00061037
0,88145919;0,54628130;-0,00061037
0,88178687;0,54628130;-0,00061037
0,88211455;0,45655690;-0,00061037
0,88244223;0,45655690;-0,00061037
0,88276991;0,45655690;-0,00061037
0,88309759;0,54628130;-0,00061037
0,88342527;0,45655690;-0,00061037
0,88375295;0,45655690;-0,00061037
0,88408063;0,54628130;-0,00061037
0,88440831;0,45655690;-0,00061037
0,88473599;0,45655690;-0,00061037
0,88506367;0,45655690;-0,00061037
0,88539135;0,54628130;-0,00061037
0,88571903;0,45655690;-0,00061037
0,88604671;0,45655690;-0,00061037
0,88637439;0,54628130;-0,00061037
0,88670207;0,45655690;-0,00061037
0,88702975;0,45655690;-0,00061037
0,88735743;0,54628130;-0,00061037
0,88768511;0,45655690;-0,00061037
0,88801279;0,45655690;-0,00061037
0,88834047;0,45655690;-0,00061037
0,88866815;0,45655690;-0,00061037
0,88899583;0,45655690;-0,00061037
0,88932351;0,45655690;-0,00061037
0,88965119;0,45655690;-0,00061037
0,88997887;0,45655690;-0,00061037
0,89030655;0,45655690;-0,00061037
0,89063423;0,45655690;-0,00061037
0,89096191;0,54628130;-0,00061037
0,89128959;0,45655690;-0,00061037
0,89161727;0,45655690;-0,00061037
0,89194495;0,45655690;-0,00061037
0,89227263;0,45655690;-0,00061037
0,89260031;0,45655690;-0,00061037
0,89292799;0,45655690;-0,00061037
0,89325567;0,45655690;-0,00061037
0,89358335;0,45655690;-0,00061037
0,89391103;0,45655690;-0,00061037
0,89423871;0,45655690;-0,00061037
0,89456639;0,45655690;-0,00061037
0,89489407;0,45655690;-0,00061037
0,89522175;0,45655690;-0,00061037
0,89554943;0,36652730;-0,00061037
0,89587711;0,45655690;-0,00061037
0,89620479;0,45655690;-0,00061037
0,89653247;0,36652730;-0,00061037
0,89686015;0,45655690;-0,00061037
0,89718783;0,36652730;-0,00061037
0,89751551;0,36652730;-0,00061037
0,89784319;0,36652730;-0,00061037
0,89817087;0,36652730;-0,00061037
0,89849855;0,36652730;-0,00061037
0,89882623;0,36652730;-0,00061037
0,89915391;0,36652730;-0,00061037
0,89948159;0,36652730;-0,00061037
0,89980927;0,36652730;-0,00061037
0,90013695;0,36652730;-0,00061037
0,90046463;0,36652730;-0,00061037
0,90079231;0,45655690;-0,00061037
0,90111999;0,36652730;-0,00061037
0,90144767;0,36652730;-0,00061037
0,90177535;0,36652730;-0,00061037
0,90210303;0,36652730;-0,00061037
0,90243071;0,45655690;-0,00061037
0,90275839;0,36652730;-0,00061037
0,90308607;0,36652730;0,09063997
0,90341375;0,36652730;-0,00061037
0,90374143;0,36652730;-0,00061037
0,90406911;0,36652730;-0,00061037
0,90439679;0,36652730;-0,00061037
0,90472447;0,36652730;-0,00061037
0,90505215;0,36652730;-0,00061037
0,90537983;0,36652730;-0,00061037
0,90570751;0,36652730;-0,00061037
0,90603519;0,36652730;-0,00061037
0,90636287;0,36652730;0,09063997
0,90669055;0,36652730;-0,00061037
0,90701823;0,36652730;-0,00061037
0,90734591;0,36652730;-0,00061037
0,90767359;0,36652730;-0,00061037
0,90800127;0,36652730;-0,00061037
0,90832895;0,36652730;-0,00061037
0,90865663;0,36652730;-0,00061037
0,90898431;0,36652730;-0,00061037
0,90931199;0,36652730;-0,00061037
0,90963967;0,36652730;-0,00061037
0,90996735;0,36652730;-0,00061037
0,91029503;0,36652730;-0,00061037
0,91062271;0,36652730;-0,00061037
0,91095039;0,36652730;-0,00061037
0,91127807;0,36652730;-0,00061037
0,91160575;0,36652730;-0,00061037
0,91193343;0,36652730;-0,00061037
0,91226111;0,36652730;-0,00061037
0,91258879;0,36652730;-0,00061037
0,91291647;0,36652730;-0,00061037
0,91324415;0,27680290;-0,00061037
0,91357183;0,36652730;-0,00061037
0,91389951;0,36652730;-0,00061037
0,91422719;0,36652730;-0,00061037
0,91455487;0,36652730;-0,00061037
0,91488255;0,36652730;-0,00061037
0,91521023;0,36652730;-0,00061037
0,91553791;0,36652730;-0,00061037
0,91586559;0,36652730;-0,00061037
0,91619327;0,27680290;-0,00061037
0,91652095;0,36652730;-0,00061037
0,91684863;0,36652730;-0,00061037
0,91717631;0,36652730;-0,00061037
0,91750399;0,36652730;-0,00061037
0,91783167;0,36652730;-0,00061037
0,91815935;0,36652730;-0,00061037
0,91848703;0,36652730;-0,00061037
0,91881471;0,36652730;-0,00061037
0,91914239;0,27680290;-0,00061037
0,91947007;0,36652730;-0,00061037
0,91979775;0,36652730;-0,00061037
0,92012543;0,36652730;-0,00061037
0,92045311;0,36652730;-0,00061037
0,92078079;0,36652730;-0,00061037
0,92110847;0,36652730;-0,00061037
0,92143615;0,27680290;-0,00061037
0,92176383;0,27680290;-0,00061037
0,92209151;0,27680290;-0,00061037
0,92241919;0,36652730;-0,00061037
0,92274687;0,27680290;-0,00061037
0,92307455;0,27680290;-0,00061037
0,92340223;0,36652730;0,09063997
0,92372991;0,27680290;-0,00061037
0,92405759;0,27680290;-0,00061037
0,92438527;0,27680290;-0,00061037
0,92471295;0,27680290;-0,00061037
0,92504063;0,36652730;-0,00061037
0,92536831;0,27680290;-0,00061037
0,92569599;0,27680290;-0,00061037
0,92602367;0,27680290;-0,00061037
0,92635135;0,27680290;-0,00061037
0,92667903;0,27680290;-0,00061037
0,92700671;0,27680290;-0,00061037
0,92733439;0,27680290;-0,00061037
0,92766207;0,27680290;-0,00061037
0,92798975;0,36652730;-0,00061037
0,92831743;0,27680290;-0,00061037
0,92864511;0,27680290;-0,00061037
0,92897279;0,27680290;-0,00061037
0,92930047;0,27680290;-0,00061037
0,92962815;0,27680290;-0,00061037
0,92995583;0,27680290;-0,00061037
0,93028351;0,27680290;-0,00061037
0,93061119;0,27680290;-0,00061037
0,93093887;0,27680290;-0,00061037
0,93126655;0,27680290;-0,00061037
0,93159423;0,27680290;-0,00061037
0,93192191;0,27680290;-0,00061037
0,93224959;0,27680290;-0,00061037
0,93257727;0,27680290;-0,00061037
0,93290495;0,27680290;-0,00061037
0,93323263;0,27680290;-0,00061037
0,93356031;0,27680290;-0,00061037
0,93388799;0,27680290;-0,00061037
0,93421567;0,27680290;-0,00061037
0,93454335;0,27680290;-0,00061037
0,93487103;0,27680290;-0,00061037
0,93519871;0,27680290;-0,00061037
0,93552639;0,27680290;-0,00061037
0,93585407;0,27680290;-0,00061037
0,93618175;0,27680290;-0,00061037
0,93650943;0,27680290;-0,00061037
0,93683711;0,27680290;-0,00061037
0,93716479;0,27680290;0,09063997
0,93749247;0,27680290;-0,00061037
0,93782015;0,27680290;-0,00061037
0,93814783;0,27680290;-0,00061037
0,93847551;0,27680290;-0,00061037
0,93880319;0,27680290;-0,00061037
0,93913087;0,27680290;-0,00061037
0,93945855;0,27680290;-0,00061037
0,93978623;0,27680290;-0,00061037
0,94011391;0,27680290;-0,00061037
0,94044159;0,27680290;-0,00061037
0,94076927;0,27680290;-0,00061037
0,94109695;0,27680290;-0,00061037
0,94142463;0,27680290;-0,00061037
0,94175231;0,27680290;-0,00061037
0,94207999;0,27680290;-0,00061037
0,94240767;0,27680290;-0,00061037
0,94273535;0,27680290;-0,00061037
0,94306303;0,27680290;-0,00061037
0,94339071;0,27680290;-0,00061037
0,94371839;0,27680290;-0,00061037
0,94404607;0,27680290;-0,00061037
0,94437375;0,27680290;-0,00061037
0,94470143;0,27680290;-0,00061037
0,94502911;0,27680290;-0,00061037
0,94535679;0,27680290;-0,00061037
0,94568447;0,27680290;-0,00061037
0,94601215;0,27680290;-0,00061037
0,94633983;0,27680290;-0,00061037
0,94666751;0,27680290;-0,00061037
0,94699519;0,18707850;-0,00061037
0,94732287;0,27680290;-0,00061037
0,94765055;0,27680290;0,09063997
0,94797823;0,27680290;-0,00061037
0,94830591;0,27680290;-0,00061037
0,94863359;0,27680290;-0,00061037
0,94896127;0,27680290;-0,00061037
0,94928895;0,27680290;-0,00061037
0,94961663;0,27680290;-0,00061037
0,94994431;0,27680290;-0,00061037
0,95027199;0,18707850;-0,00061037
0,95059967;0,27680290;0,09063997
0,95092735;0,27680290;-0,00061037
0,95125503;0,27680290;-0,00061037
0,95158271;0,18707850;-0,00061037
0,95191039;0,18707850;-0,00061037
0,95223807;0,18707850;-0,00061037
0,95256575;0,27680290;-0,00061037
0,95289343;0,18707850;-0,00061037
0,95322111;0,18707850;-0,00061037
0,95354879;0,18707850;-0,00061037
0,95387647;0,18707850;-0,00061037
0,95420415;0,18707850;-0,00061037
0,95453183;0,18707850;-0,00061037
0,95485951;0,18707850;-0,00061037
0,95518719;0,27680290;-0,00061037
0,95551487;0,27680290;-0,00061037
0,95584255;0,18707850;-0,00061037
0,95617023;0,18707850;-0,00061037
0,95649791;0,18707850;-0,00061037
0,95682559;0,18707850;-0,00061037
0,95715327;0,18707850;-0,00061037
0,95748095;0,18707850;-0,00061037
0,95780863;0,18707850;-0,00061037
0,95813631;0,18707850;0,09063997
0,95846399;0,18707850;-0,00061037
0,95879167;0,27680290;-0,00061037
0,95911935;0,18707850;-0,00061037
0,95944703;0,18707850;-0,00061037
0,95977471;0,18707850;-0,00061037
0,96010239;0,18707850;-0,00061037
0,96043007;0,18707850;-0,00061037
0,96075775;0,18707850;-0,00061037
0,96108543;0,18707850;-0,00061037
0,96141311;0,18707850;-0,00061037
0,96174079;0,18707850;-0,00061037
0,96206847;0,18707850;-0,00061037
0,96239615;0,18707850;-0,00061037
0,96272383;0,18707850;-0,00061037
0,96305151;0,18707850;-0,00061037
0,96337919;0,18707850;-0,00061037
0,96370687;0,18707850;-0,00061037
0,96403455;0,18707850;-0,00061037
0,96436223;0,18707850;-0,00061037
0,96468991;0,18707850;-0,00061037
0,96501759;0,18707850;-0,00061037
0,96534527;0,18707850;-0,00061037
0,96567295;0,18707850;-0,00061037
0,96600063;0,18707850;-0,00061037
0,96632831;0,18707850;-0,00061037
0,96665599;0,18707850;-0,00061037
0,96698367;0,18707850;-0,00061037
0,96731135;0,18707850;-0,00061037
0,96763903;0,18707850;-0,00061037
0,96796671;0,18707850;-0,00061037
0,96829439;0,18707850;-0,00061037
0,96862207;0,18707850;-0,00061037
0,96894975;0,18707850;-0,00061037
0,96927743;0,18707850;-0,00061037
0,96960511;0,18707850;-0,00061037
0,96993279;0,18707850;-0,00061037
0,97026047;0,18707850;-0,00061037
0,97058815;0,18707850;-0,00061037
0,97091583;0,18707850;-0,00061037
0,97124351;0,18707850;-0,00061037
0,97157119;0,18707850;-0,00061037
0,97189887;0,18707850;-0,00061037
0,97222655;0,18707850;-0,00061037
0,97255423;0,18707850;-0,00061037
0,97288191;0,18707850;-0,00061037
0,97320959;0,18707850;-0,00061037
0,97353727;0,18707850;-0,00061037
0,97386495;0,18707850;-0,00061037
0,97419263;0,18707850;-0,00061037
0,97452031;0,18707850;-0,00061037
0,97484799;0,18707850;-0,00061037
0,97517567;0,18707850;-0,00061037
0,97550335;0,18707850;-0,00061037
0,97583103;0,18707850;-0,00061037
0,97615871;0,18707850;-0,00061037
0,97648639;0,18707850;-0,00061037
0,97681407;0,18707850;-0,00061037
0,97714175;0,18707850;-0,00061037
0,97746943;0,18707850;-0,00061037
0,97779711;0,18707850;-0,00061037
0,97812479;0,18707850;-0,00061037
0,97845247;0,18707850;-0,00061037
0,97878015;0,18707850;-0,00061037
0,97910783;0,18707850;-0,00061037
0,97943551;0,18707850;-0,00061037
0,97976319;0,18707850;0,09063997
0,98009087;0,18707850;-0,00061037
0,98041855;0,18707850;-0,00061037
0,98074623;0,18707850;-0,00061037
0,98107391;0,18707850;-0,00061037
0,98140159;0,18707850;-0,00061037
0,98172927;0,18707850;-0,00061037
0,98205695;0,18707850;-0,00061037
0,98238463;0,18707850;-0,00061037
0,98271231;0,18707850;-0,00061037
0,98303999;0,09735405;0,09063997
0,98336767;0,18707850;-0,00061037
0,98369535;0,18707850;-0,00061037
0,98402303;0,18707850;-0,00061037
0,98435071;0,18707850;-0,00061037
0,98467839;0,18707850;-0,00061037
0,98500607;0,18707850;-0,00061037
0,98533375;0,18707850;-0,00061037
0,98566143;0,18707850;0,09063997
0,98598911;0,18707850;-0,00061037
0,98631679;0,18707850;-0,00061037
0,98664447;0,18707850;-0,00061037
0,98697215;0,18707850;-0,00061037
0,98729983;0,18707850;-0,00061037
0,98762751;0,18707850;0,09063997
0,98795519;0,18707850;-0,00061037
0,98828287;0,18707850;-0,00061037
0,98861055;0,18707850;-0,00061037
0,98893823;0,18707850;-0,00061037
0,98926591;0,18707850;-0,00061037
0,98959359;0,18707850;-0,00061037
0,98992127;0,18707850;-0,00061037
0,99024895;0,18707850;-0,00061037
0,99057663;0,18707850;-0,00061037
0,99090431;0,18707850;-0,00061037
0,99123199;0,18707850;-0,00061037
0,99155967;0,18707850;-0,00061037
0,99188735;0,18707850;-0,00061037
0,99221503;0,18707850;-0,00061037
0,99254271;0,18707850;-0,00061037
0,99287039;0,18707850;-0,00061037
0,99319807;0,18707850;-0,00061037
0,99352575;0,18707850;-0,00061037
0,99385343;0,18707850;-0,00061037
0,99418111;0,18707850;-0,00061037
0,99450879;0,18707850;-0,00061037
0,99483647;0,09735405;-0,00061037
0,99516415;0,18707850;-0,00061037
0,99549183;0,18707850;-0,00061037
0,99581951;0,18707850;-0,00061037
0,99614719;0,18707850;-0,00061037
0,99647487;0,18707850;-0,00061037
0,99680255;0,18707850;-0,00061037
0,99713023;0,18707850;-0,00061037
0,99745791;0,09735405;-0,00061037
0,99778559;0,18707850;-0,00061037
0,99811327;0,09735405;-0,00061037
0,99844095;0,18707850;-0,00061037
0,99876863;0,18707850;-0,00061037
0,99909631;0,09735405;-0,00061037
0,99942399;0,18707850;-0,00061037
0,99975167;0,09735405;-0,00061037
1,00007935;0,18707850;-0,00061037
1,00040703;0,09735405;-0,00061037
1,00073471;0,09735405;-0,00061037
1,00106239;0,18707850;-0,00061037
